1/28/2013 12:30 PM
nDataPerSetPoint: 30
Testing RAF Probes
Reference(C), Heated 812452A(Ohm), Heated 812452B(Ohm), FastResp 3246(Ohm)
29.867886 	55.939343 	55.929843 	56.187661 
29.867851 	55.939338 	55.929838 	56.187601 
29.867831 	55.939338 	55.929838 	56.187612 
29.867791 	55.939336 	55.929837 	56.187645 
29.867759 	55.939336 	55.929836 	56.187674 
29.867725 	55.939329 	55.929829 	56.187676 
29.867710 	55.939329 	55.929830 	56.187681 
29.867696 	55.939331 	55.929832 	56.187681 
29.867669 	55.939335 	55.929834 	56.187651 
29.867672 	55.939334 	55.929832 	56.187614 
29.867662 	55.939339 	55.929839 	56.187611 
29.867662 	55.939342 	55.929844 	56.187618 
29.867690 	55.939347 	55.929850 	56.187617 
29.867722 	55.939350 	55.929857 	56.187599 
29.867772 	55.939357 	55.929865 	56.187609 
29.867828 	55.939369 	55.929878 	56.187661 
29.867911 	55.939384 	55.929893 	56.187712 
29.868080 	55.939399 	55.929909 	56.187713 
29.868080 	55.939421 	55.929928 	56.187702 
29.868166 	55.939438 	55.929941 	56.187683 
29.868242 	55.939447 	55.929950 	56.187665 
29.868298 	55.939458 	55.929958 	56.187726 
29.868351 	55.939473 	55.929971 	56.187773 
29.868359 	55.939482 	55.929976 	56.187813 
29.868399 	55.939487 	55.929983 	56.187846 
29.868435 	55.939491 	55.929989 	56.187877 
29.868539 	55.939498 	55.929998 	56.187914 
29.868539 	55.939508 	55.930009 	56.187952 
29.868624 	55.939520 	55.930026 	56.187978 
29.868700 	55.939540 	55.930047 	56.188012 
19.875437 	53.970186 	53.959743 	54.202695 
19.875612 	53.970199 	53.959756 	54.202698 
19.875708 	53.970217 	53.959772 	54.202722 
19.875708 	53.970236 	53.959790 	54.202730 
19.875953 	53.970257 	53.959811 	54.202754 
19.875953 	53.970280 	53.959832 	54.202748 
19.876165 	53.970300 	53.959854 	54.202776 
19.876165 	53.970319 	53.959873 	54.202791 
19.876248 	53.970336 	53.959887 	54.202813 
19.876402 	53.970356 	53.959905 	54.202817 
19.876402 	53.970372 	53.959917 	54.202821 
19.876518 	53.970392 	53.959933 	54.202848 
19.876586 	53.970404 	53.959945 	54.202844 
19.876641 	53.970410 	53.959950 	54.202872 
19.876693 	53.970416 	53.959957 	54.202873 
19.876737 	53.970421 	53.959963 	54.202875 
19.876807 	53.970427 	53.959970 	54.202902 
19.876807 	53.970433 	53.959977 	54.202926 
19.876906 	53.970436 	53.959980 	54.202923 
19.876906 	53.970444 	53.959986 	54.202909 
19.877020 	53.970451 	53.959996 	54.202876 
19.877080 	53.970465 	53.960006 	54.202882 
19.877154 	53.970479 	53.960023 	54.202924 
19.877229 	53.970498 	53.960041 	54.202948 
19.877276 	53.970508 	53.960051 	54.202953 
19.877306 	53.970520 	53.960062 	54.202940 
19.877296 	53.970528 	53.960067 	54.202937 
19.877325 	53.970532 	53.960074 	54.202968 
19.877353 	53.970542 	53.960086 	54.203002 
19.877392 	53.970556 	53.960097 	54.203048 
9.893819 	51.997004 	51.985702 	52.214033 
9.893820 	51.997011 	51.985708 	52.214062 
9.893801 	51.997018 	51.985714 	52.214067 
9.893811 	51.997021 	51.985717 	52.214061 
9.893813 	51.997021 	51.985716 	52.214073 
9.893842 	51.997020 	51.985713 	52.214073 
9.893864 	51.997016 	51.985710 	52.214073 
9.893884 	51.997017 	51.985712 	52.214089 
9.893922 	51.997023 	51.985719 	52.214062 
9.893965 	51.997025 	51.985722 	52.214052 
9.893993 	51.997031 	51.985727 	52.214031 
9.894020 	51.997037 	51.985735 	52.214014 
9.894060 	51.997045 	51.985742 	52.213968 
9.894114 	51.997053 	51.985749 	52.213947 
9.894161 	51.997058 	51.985756 	52.213923 
9.894235 	51.997066 	51.985766 	52.213916 
9.894313 	51.997078 	51.985777 	52.213890 
9.894401 	51.997086 	51.985788 	52.213864 
9.894488 	51.997098 	51.985800 	52.213851 
9.894575 	51.997114 	51.985817 	52.213856 
9.894625 	51.997131 	51.985834 	52.213864 
9.894643 	51.997144 	51.985846 	52.213882 
9.894647 	51.997153 	51.985855 	52.213890 
9.894617 	51.997155 	51.985857 	52.213906 
9.894561 	51.997153 	51.985853 	52.213914 
9.894499 	51.997153 	51.985852 	52.213894 
9.894458 	51.997148 	51.985848 	52.213879 
9.894446 	51.997145 	51.985844 	52.213868 
9.894444 	51.997148 	51.985844 	52.213887 
9.894444 	51.997147 	51.985843 	52.213900 
-0.098880 	50.015322 	50.003388 	50.216621 
-0.098910 	50.015318 	50.003384 	50.216621 
-0.098923 	50.015313 	50.003380 	50.216628 
-0.098900 	50.015306 	50.003372 	50.216644 
-0.098890 	50.015299 	50.003365 	50.216641 
-0.098908 	50.015294 	50.003360 	50.216644 
-0.098938 	50.015293 	50.003359 	50.216656 
-0.098962 	50.015292 	50.003358 	50.216674 
-0.098953 	50.015295 	50.003363 	50.216679 
-0.098935 	50.015302 	50.003370 	50.216655 
-0.098935 	50.015309 	50.003375 	50.216664 
-0.098852 	50.015311 	50.003380 	50.216675 
-0.098737 	50.015317 	50.003388 	50.216691 
-0.098643 	50.015322 	50.003396 	50.216689 
-0.098501 	50.015328 	50.003404 	50.216690 
-0.098342 	50.015341 	50.003416 	50.216668 
-0.098183 	50.015361 	50.003439 	50.216681 
-0.098183 	50.015388 	50.003465 	50.216707 
-0.097899 	50.015417 	50.003491 	50.216733 
-0.097766 	50.015439 	50.003515 	50.216759 
-0.097628 	50.015461 	50.003537 	50.216777 
-0.097628 	50.015479 	50.003557 	50.216777 
-0.097455 	50.015500 	50.003576 	50.216772 
-0.097401 	50.015514 	50.003591 	50.216764 
-0.097401 	50.015531 	50.003606 	50.216780 
-0.097303 	50.015544 	50.003619 	50.216783 
-0.097092 	50.015557 	50.003630 	50.216793 
-0.096940 	50.015570 	50.003645 	50.216797 
-0.096940 	50.015588 	50.003661 	50.216820 
-0.096758 	50.015605 	50.003677 	50.216849 
-10.084246 	48.028537 	48.016132 	48.214516 
-10.084154 	48.028579 	48.016170 	48.214563 
-10.084049 	48.028613 	48.016204 	48.214592 
-10.084049 	48.028642 	48.016234 	48.214635 
-10.083785 	48.028674 	48.016266 	48.214670 
-10.083595 	48.028705 	48.016297 	48.214709 
-10.083396 	48.028740 	48.016331 	48.214757 
-10.083200 	48.028777 	48.016371 	48.214810 
-10.083021 	48.028822 	48.016417 	48.214876 
-10.082872 	48.028872 	48.016466 	48.214946 
-10.082714 	48.028924 	48.016519 	48.215020 
-10.082714 	48.028974 	48.016567 	48.215076 
-10.082370 	48.029018 	48.016611 	48.215132 
-10.082175 	48.029060 	48.016655 	48.215196 
-10.082004 	48.029101 	48.016692 	48.215232 
-10.081853 	48.029138 	48.016730 	48.215266 
-10.081662 	48.029177 	48.016768 	48.215316 
-10.081662 	48.029220 	48.016815 	48.215373 
-10.081244 	48.029274 	48.016866 	48.215415 
-10.081005 	48.029325 	48.016919 	48.215483 
-10.080736 	48.029381 	48.016974 	48.215544 
-10.080446 	48.029440 	48.017033 	48.215590 
-10.080160 	48.029496 	48.017088 	48.215629 
-10.079944 	48.029547 	48.017137 	48.215663 
-10.079798 	48.029590 	48.017180 	48.215702 
-10.079677 	48.029624 	48.017214 	48.215732 
-10.079677 	48.029649 	48.017239 	48.215733 
-10.079607 	48.029671 	48.017261 	48.215763 
-10.079581 	48.029689 	48.017279 	48.215822 
-10.079499 	48.029705 	48.017295 	48.215816 
-20.076299 	46.034624 	46.021880 	46.205025 
-20.076348 	46.034626 	46.021885 	46.205043 
-20.076348 	46.034637 	46.021894 	46.205050 
-20.076271 	46.034648 	46.021905 	46.205073 
-20.076271 	46.034659 	46.021913 	46.205088 
-20.076288 	46.034667 	46.021919 	46.205117 
-20.076264 	46.034670 	46.021923 	46.205114 
-20.076264 	46.034673 	46.021924 	46.205110 
-20.076241 	46.034670 	46.021923 	46.205103 
-20.076287 	46.034667 	46.021920 	46.205110 
-20.076313 	46.034668 	46.021918 	46.205124 
-20.076344 	46.034667 	46.021921 	46.205149 
-20.076290 	46.034671 	46.021926 	46.205202 
-20.076245 	46.034677 	46.021932 	46.205218 
-20.076133 	46.034686 	46.021940 	46.205199 
-20.075976 	46.034695 	46.021952 	46.205194 
-20.075768 	46.034710 	46.021969 	46.205173 
-20.075533 	46.034734 	46.021993 	46.205135 
-20.075299 	46.034762 	46.022020 	46.205147 
-20.075080 	46.034792 	46.022049 	46.205157 
-20.074934 	46.034825 	46.022081 	46.205182 
-20.074795 	46.034863 	46.022120 	46.205193 
-20.074642 	46.034903 	46.022157 	46.205215 
-20.074418 	46.034935 	46.022190 	46.205235 
-20.074251 	46.034966 	46.022218 	46.205275 
-20.074105 	46.034989 	46.022240 	46.205308 
-20.074024 	46.035010 	46.022262 	46.205375 
-20.073940 	46.035030 	46.022284 	46.205417 
-20.073819 	46.035052 	46.022307 	46.205433 
-20.073652 	46.035076 	46.022330 	46.205448 
-30.056773 	44.036407 	44.023399 	44.191464 
-30.056484 	44.036464 	44.023457 	44.191520 
-30.056165 	44.036525 	44.023515 	44.191544 
-30.055829 	44.036588 	44.023579 	44.191571 
-30.055167 	44.036654 	44.023644 	44.191634 
-30.055167 	44.036717 	44.023707 	44.191696 
-30.054898 	44.036778 	44.023765 	44.191751 
-30.054671 	44.036831 	44.023817 	44.191753 
-30.054457 	44.036879 	44.023862 	44.191779 
-30.054278 	44.036923 	44.023901 	44.191819 
-30.054097 	44.036955 	44.023935 	44.191853 
-30.053906 	44.036989 	44.023967 	44.191885 
-30.053751 	44.037023 	44.024000 	44.191920 
-30.053524 	44.037059 	44.024038 	44.191934 
-30.053373 	44.037099 	44.024081 	44.191957 
-30.053373 	44.037141 	44.024126 	44.192011 
-30.053170 	44.037188 	44.024175 	44.192063 
-30.052874 	44.037246 	44.024231 	44.192124 
-30.052665 	44.037298 	44.024281 	44.192165 
-30.052494 	44.037347 	44.024328 	44.192214 
-30.052326 	44.037388 	44.024367 	44.192267 
-30.052180 	44.037422 	44.024401 	44.192314 
-30.052077 	44.037455 	44.024434 	44.192327 
-30.051908 	44.037482 	44.024458 	44.192343 
-30.051908 	44.037501 	44.024473 	44.192393 
-30.051884 	44.037509 	44.024479 	44.192414 
-30.051884 	44.037504 	44.024471 	44.192444 
-30.051948 	44.037491 	44.024455 	44.192436 
-30.052151 	44.037468 	44.024430 	44.192423 
-30.052151 	44.037440 	44.024403 	44.192436 
-40.042767 	42.031125 	42.017892 	42.171066 
-40.042767 	42.031161 	42.017930 	42.171098 
-40.042463 	42.031201 	42.017972 	42.171145 
-40.042300 	42.031241 	42.018009 	42.171189 
-40.042121 	42.031277 	42.018043 	42.171215 
-40.041931 	42.031307 	42.018078 	42.171237 
-40.041786 	42.031337 	42.018105 	42.171254 
-40.041681 	42.031362 	42.018132 	42.171276 
-40.041576 	42.031385 	42.018153 	42.171302 
-40.041453 	42.031406 	42.018173 	42.171324 
-40.041453 	42.031422 	42.018191 	42.171329 
-40.041325 	42.031437 	42.018205 	42.171345 
-40.041103 	42.031450 	42.018218 	42.171371 
-40.041103 	42.031466 	42.018233 	42.171426 
-40.040870 	42.031482 	42.018249 	42.171440 
-40.040775 	42.031506 	42.018271 	42.171456 
-40.040679 	42.031528 	42.018290 	42.171456 
-40.040650 	42.031550 	42.018312 	42.171472 
-40.040650 	42.031574 	42.018336 	42.171512 
-40.040466 	42.031594 	42.018353 	42.171530 
-40.040325 	42.031618 	42.018381 	42.171554 
-40.040156 	42.031651 	42.018412 	42.171581 
-40.039985 	42.031678 	42.018439 	42.171606 
-40.039985 	42.031706 	42.018464 	42.171610 
-40.039779 	42.031729 	42.018490 	42.171632 
-40.039721 	42.031754 	42.018511 	42.171667 
-40.039675 	42.031767 	42.018524 	42.171640 
-40.039652 	42.031776 	42.018528 	42.171659 
-40.039633 	42.031773 	42.018529 	42.171674 
-40.039635 	42.031768 	42.018520 	42.171692 
-50.034087 	40.018105 	40.004638 	40.142091 
-50.034087 	40.018139 	40.004672 	40.142049 
-50.033952 	40.018171 	40.004703 	40.142036 
-50.033845 	40.018193 	40.004725 	40.142028 
-50.033827 	40.018202 	40.004736 	40.142062 
-50.033827 	40.018205 	40.004738 	40.142035 
-50.033881 	40.018198 	40.004731 	40.142045 
-50.034141 	40.018182 	40.004716 	40.142028 
-50.034141 	40.018162 	40.004697 	40.142110 
-50.034279 	40.018143 	40.004676 	40.142072 
-50.034512 	40.018121 	40.004653 	40.142024 
-50.034614 	40.018092 	40.004628 	40.141961 
-50.034614 	40.018072 	40.004607 	40.141889 
-50.034797 	40.018054 	40.004588 	40.141851 
-50.034883 	40.018038 	40.004571 	40.141894 
-50.034883 	40.018020 	40.004559 	40.141936 
-50.034962 	40.018013 	40.004551 	40.141984 
-50.035042 	40.017998 	40.004538 	40.141870 
-50.035048 	40.017981 	40.004524 	40.141851 
-50.035033 	40.017976 	40.004523 	40.141886 
-50.035033 	40.017983 	40.004533 	40.141950 
-50.034964 	40.017996 	40.004546 	40.141991 
-50.034853 	40.018012 	40.004562 	40.142035 
-50.034733 	40.018029 	40.004575 	40.142071 
-50.034606 	40.018050 	40.004593 	40.142138 
-50.034477 	40.018078 	40.004619 	40.142179 
-50.034354 	40.018107 	40.004647 	40.142144 
-50.034252 	40.018135 	40.004674 	40.142206 
-50.034135 	40.018164 	40.004703 	40.142223 
-50.034005 	40.018191 	40.004726 	40.142211 
-60.023524 	37.998578 	37.984973 	38.105672 
-60.023524 	37.998569 	37.984966 	38.105697 
-60.023725 	37.998557 	37.984952 	38.105645 
-60.023851 	37.998542 	37.984933 	38.105570 
-60.023851 	37.998522 	37.984913 	38.105509 
-60.024068 	37.998499 	37.984892 	38.105404 
-60.024175 	37.998484 	37.984875 	38.105317 
-60.024260 	37.998460 	37.984853 	38.105267 
-60.024374 	37.998429 	37.984827 	38.105215 
-60.024494 	37.998407 	37.984808 	38.105173 
-60.024559 	37.998389 	37.984790 	38.105219 
-60.024569 	37.998376 	37.984777 	38.105383 
-60.024538 	37.998369 	37.984769 	38.105401 
-60.024423 	37.998369 	37.984772 	38.105371 
-60.024259 	37.998383 	37.984784 	38.105367 
-60.024080 	37.998402 	37.984802 	38.105343 
-60.023919 	37.998431 	37.984834 	38.105415 
-60.023664 	37.998478 	37.984873 	38.105496 
-60.023367 	37.998540 	37.984927 	38.105456 
-60.023367 	37.998589 	37.984977 	38.105429 
-60.022695 	37.998641 	37.985027 	38.105441 
-60.022358 	37.998698 	37.985084 	38.105502 
-60.022088 	37.998759 	37.985143 	38.105682 
-60.021793 	37.998824 	37.985206 	38.105724 
-60.021793 	37.998888 	37.985267 	38.105816 
-60.021246 	37.998940 	37.985320 	38.105797 
-60.021024 	37.998990 	37.985372 	38.105765 
-60.020811 	37.999040 	37.985421 	38.105818 
-60.020811 	37.999100 	37.985479 	38.105812 
-60.020455 	37.999157 	37.985535 	38.105681 
