2/6/2013 7:11 AM
nDataPerSetPoint: 30
Calibrating RAF Probes
Reference(C), Heated 812453A(Ohm), Heated 812453B(Ohm), FastResp 2603(Ohm)
29.868594 	55.935647 	55.917343 	55.201679 
29.868648 	55.935647 	55.917343 	55.201679 
29.868624 	55.935644 	55.917339 	55.201674 
29.868571 	55.935645 	55.917339 	55.201668 
29.868527 	55.935642 	55.917334 	55.201670 
29.868527 	55.935632 	55.917325 	55.201664 
29.868420 	55.935625 	55.917318 	55.201659 
29.868332 	55.935617 	55.917310 	55.201644 
29.868204 	55.935610 	55.917303 	55.201643 
29.868087 	55.935593 	55.917282 	55.201623 
29.868087 	55.935578 	55.917268 	55.201596 
29.868030 	55.935575 	55.917269 	55.201581 
29.868091 	55.935579 	55.917275 	55.201587 
29.868091 	55.935594 	55.917288 	55.201599 
29.868241 	55.935606 	55.917300 	55.201598 
29.868241 	55.935623 	55.917313 	55.201582 
29.868256 	55.935625 	55.917312 	55.201574 
29.868259 	55.935614 	55.917304 	55.201580 
29.868242 	55.935605 	55.917296 	55.201585 
29.868221 	55.935596 	55.917289 	55.201557 
29.868221 	55.935599 	55.917288 	55.201536 
29.868226 	55.935604 	55.917292 	55.201523 
29.868293 	55.935605 	55.917292 	55.201538 
29.868348 	55.935608 	55.917299 	55.201566 
29.868405 	55.935616 	55.917307 	55.201582 
29.868393 	55.935626 	55.917315 	55.201581 
29.868395 	55.935631 	55.917320 	55.201596 
29.868398 	55.935637 	55.917326 	55.201626 
29.868427 	55.935639 	55.917329 	55.201626 
29.868481 	55.935647 	55.917338 	55.201637 
19.876822 	53.964332 	53.947684 	53.332537 
19.876944 	53.964354 	53.947707 	53.332482 
19.877050 	53.964370 	53.947723 	53.332532 
19.877167 	53.964380 	53.947734 	53.332555 
19.877240 	53.964391 	53.947744 	53.332548 
19.877277 	53.964391 	53.947745 	53.332550 
19.877285 	53.964389 	53.947742 	53.332577 
19.877266 	53.964389 	53.947741 	53.332581 
19.877287 	53.964391 	53.947746 	53.332643 
19.877351 	53.964406 	53.947760 	53.332683 
19.877405 	53.964424 	53.947778 	53.332693 
19.877460 	53.964435 	53.947794 	53.332690 
19.877460 	53.964450 	53.947811 	53.332709 
19.877550 	53.964468 	53.947831 	53.332709 
19.877752 	53.964489 	53.947852 	53.332717 
19.877752 	53.964507 	53.947871 	53.332728 
19.877842 	53.964528 	53.947895 	53.332733 
19.877947 	53.964554 	53.947921 	53.332762 
19.878122 	53.964575 	53.947942 	53.332776 
19.878122 	53.964593 	53.947958 	53.332777 
19.878209 	53.964612 	53.947978 	53.332831 
19.878271 	53.964624 	53.947987 	53.332889 
19.878361 	53.964634 	53.947997 	53.332882 
19.878361 	53.964646 	53.948008 	53.332896 
19.878435 	53.964659 	53.948023 	53.332917 
19.878494 	53.964669 	53.948033 	53.332932 
19.878551 	53.964685 	53.948048 	53.332981 
19.878607 	53.964691 	53.948057 	53.333025 
19.878607 	53.964704 	53.948068 	53.333028 
19.878674 	53.964716 	53.948079 	53.333039 
9.893312 	51.988632 	51.973705 	51.459901 
9.893356 	51.988639 	51.973712 	51.459906 
9.893427 	51.988647 	51.973722 	51.459938 
9.893495 	51.988657 	51.973733 	51.459963 
9.893570 	51.988659 	51.973737 	51.459985 
9.893651 	51.988669 	51.973746 	51.460012 
9.893782 	51.988684 	51.973761 	51.460011 
9.893878 	51.988707 	51.973785 	51.459977 
9.894005 	51.988732 	51.973810 	51.459997 
9.894147 	51.988759 	51.973840 	51.460031 
9.894336 	51.988793 	51.973870 	51.460084 
9.894422 	51.988824 	51.973901 	51.460090 
9.894458 	51.988843 	51.973918 	51.460098 
9.894445 	51.988857 	51.973931 	51.460090 
9.894353 	51.988855 	51.973927 	51.460102 
9.894252 	51.988844 	51.973916 	51.460096 
9.894252 	51.988831 	51.973903 	51.460084 
9.894197 	51.988821 	51.973892 	51.460095 
9.894242 	51.988823 	51.973894 	51.460150 
9.894242 	51.988836 	51.973912 	51.460168 
9.894350 	51.988859 	51.973941 	51.460178 
9.894630 	51.988896 	51.973978 	51.460198 
9.894734 	51.988928 	51.974009 	51.460199 
9.894754 	51.988952 	51.974031 	51.460205 
9.894754 	51.988970 	51.974049 	51.460225 
9.894736 	51.988980 	51.974052 	51.460250 
9.894638 	51.988970 	51.974044 	51.460230 
9.894588 	51.988960 	51.974035 	51.460207 
9.894584 	51.988948 	51.974026 	51.460214 
9.894632 	51.988952 	51.974033 	51.460214 
-0.097072 	50.005596 	49.992365 	49.580123 
-0.097072 	50.005615 	49.992385 	49.580171 
-0.097059 	50.005630 	49.992400 	49.580227 
-0.097052 	50.005645 	49.992413 	49.580273 
-0.097052 	50.005659 	49.992429 	49.580328 
-0.096929 	50.005672 	49.992442 	49.580338 
-0.096929 	50.005689 	49.992461 	49.580347 
-0.096804 	50.005705 	49.992478 	49.580354 
-0.096702 	50.005719 	49.992491 	49.580344 
-0.096542 	50.005736 	49.992507 	49.580382 
-0.096427 	50.005751 	49.992521 	49.580401 
-0.096077 	50.005769 	49.992543 	49.580408 
-0.096077 	50.005791 	49.992564 	49.580453 
-0.095928 	50.005813 	49.992588 	49.580494 
-0.095771 	50.005840 	49.992615 	49.580527 
-0.095677 	50.005864 	49.992641 	49.580551 
-0.095603 	50.005885 	49.992662 	49.580560 
-0.095564 	50.005904 	49.992680 	49.580575 
-0.095488 	50.005921 	49.992699 	49.580590 
-0.095438 	50.005940 	49.992716 	49.580611 
-0.095430 	50.005958 	49.992734 	49.580643 
-0.095352 	50.005974 	49.992749 	49.580633 
-0.095246 	50.005986 	49.992761 	49.580646 
-0.095043 	50.005998 	49.992774 	49.580681 
-0.095043 	50.006004 	49.992781 	49.580726 
-0.094878 	50.006016 	49.992793 	49.580687 
-0.094730 	50.006033 	49.992811 	49.580700 
-0.094561 	50.006050 	49.992831 	49.580760 
-0.094363 	50.006071 	49.992853 	49.580775 
-0.094216 	50.006094 	49.992878 	49.580812 
-10.081940 	48.017286 	48.005733 	47.694266 
-10.081714 	48.017307 	48.005756 	47.694301 
-10.081714 	48.017335 	48.005784 	47.694328 
-10.081349 	48.017364 	48.005815 	47.694406 
-10.081174 	48.017395 	48.005845 	47.694453 
-10.081034 	48.017425 	48.005876 	47.694456 
-10.080926 	48.017454 	48.005902 	47.694460 
-10.080926 	48.017476 	48.005924 	47.694470 
-10.080768 	48.017493 	48.005941 	47.694459 
-10.080768 	48.017503 	48.005950 	47.694424 
-10.080702 	48.017505 	48.005952 	47.694451 
-10.080702 	48.017512 	48.005963 	47.694465 
-10.080409 	48.017525 	48.005981 	47.694438 
-10.080228 	48.017547 	48.006007 	47.694453 
-10.080065 	48.017577 	48.006036 	47.694488 
-10.079899 	48.017603 	48.006061 	47.694479 
-10.079815 	48.017626 	48.006083 	47.694499 
-10.079815 	48.017645 	48.006102 	47.694494 
-10.079765 	48.017660 	48.006115 	47.694495 
-10.079675 	48.017674 	48.006128 	47.694499 
-10.079675 	48.017685 	48.006138 	47.694555 
-10.079615 	48.017698 	48.006146 	47.694564 
-10.079572 	48.017713 	48.006162 	47.694550 
-10.079472 	48.017729 	48.006179 	47.694537 
-10.079441 	48.017749 	48.006200 	47.694527 
-10.079441 	48.017765 	48.006212 	47.694513 
-10.079413 	48.017778 	48.006226 	47.694535 
-10.079323 	48.017785 	48.006234 	47.694541 
-10.079323 	48.017795 	48.006243 	47.694494 
-10.079239 	48.017809 	48.006256 	47.694463 
-20.070434 	46.022053 	46.012179 	45.800751 
-20.070434 	46.022066 	46.012192 	45.800761 
-20.070224 	46.022080 	46.012204 	45.800742 
-20.070224 	46.022090 	46.012217 	45.800753 
-20.069947 	46.022112 	46.012240 	45.800795 
-20.069809 	46.022142 	46.012271 	45.800820 
-20.069809 	46.022173 	46.012301 	45.800870 
-20.069557 	46.022200 	46.012334 	45.800922 
-20.069557 	46.022239 	46.012373 	45.800941 
-20.069440 	46.022280 	46.012413 	45.800933 
-20.069253 	46.022317 	46.012448 	45.800972 
-20.069188 	46.022346 	46.012476 	45.800980 
-20.069188 	46.022367 	46.012492 	45.800970 
-20.069081 	46.022383 	46.012508 	45.800975 
-20.069074 	46.022395 	46.012515 	45.800971 
-20.069059 	46.022399 	46.012515 	45.800973 
-20.069040 	46.022401 	46.012513 	45.800979 
-20.069040 	46.022401 	46.012509 	45.800967 
-20.069046 	46.022393 	46.012503 	45.800900 
-20.069140 	46.022380 	46.012492 	45.800891 
-20.069140 	46.022372 	46.012482 	45.800891 
-20.069195 	46.022365 	46.012475 	45.800887 
-20.069195 	46.022360 	46.012470 	45.800887 
-20.069191 	46.022361 	46.012469 	45.800886 
-20.069133 	46.022363 	46.012473 	45.800907 
-20.069084 	46.022369 	46.012478 	45.800948 
-20.069055 	46.022376 	46.012485 	45.800984 
-20.069018 	46.022389 	46.012496 	45.801002 
-20.068998 	46.022400 	46.012509 	45.801039 
-20.068976 	46.022411 	46.012520 	45.801055 
-30.050939 	44.022348 	44.014123 	43.903428 
-30.050774 	44.022374 	44.014147 	43.903453 
-30.050774 	44.022397 	44.014172 	43.903485 
-30.050647 	44.022420 	44.014194 	43.903511 
-30.050532 	44.022441 	44.014216 	43.903535 
-30.050426 	44.022461 	44.014237 	43.903559 
-30.050253 	44.022480 	44.014255 	43.903602 
-30.050253 	44.022493 	44.014269 	43.903605 
-30.050226 	44.022506 	44.014282 	43.903639 
-30.050123 	44.022517 	44.014295 	43.903621 
-30.050052 	44.022531 	44.014309 	43.903697 
-30.050052 	44.022544 	44.014322 	43.903718 
-30.049969 	44.022551 	44.014328 	43.903721 
-30.049969 	44.022557 	44.014333 	43.903730 
-30.049907 	44.022566 	44.014345 	43.903753 
-30.049913 	44.022571 	44.014350 	43.903774 
-30.049850 	44.022578 	44.014357 	43.903816 
-30.049850 	44.022587 	44.014367 	43.903826 
-30.049734 	44.022599 	44.014380 	43.903851 
-30.049734 	44.022610 	44.014392 	43.903858 
-30.049593 	44.022623 	44.014405 	43.903864 
-30.049524 	44.022639 	44.014419 	43.903867 
-30.049524 	44.022649 	44.014431 	43.903827 
-30.049363 	44.022659 	44.014442 	43.903829 
-30.049313 	44.022668 	44.014451 	43.903831 
-30.049313 	44.022678 	44.014459 	43.903849 
-30.049268 	44.022685 	44.014466 	43.903869 
-30.049247 	44.022686 	44.014467 	43.903883 
-30.049199 	44.022690 	44.014471 	43.903896 
-30.049151 	44.022694 	44.014477 	43.903891 
-40.036801 	42.015273 	42.008680 	42.000966 
-40.036801 	42.015284 	42.008694 	42.000940 
-40.036737 	42.015295 	42.008702 	42.000937 
-40.036692 	42.015304 	42.008709 	42.000942 
-40.036620 	42.015309 	42.008714 	42.000929 
-40.036605 	42.015317 	42.008718 	42.000930 
-40.036553 	42.015323 	42.008721 	42.000934 
-40.036529 	42.015329 	42.008725 	42.000956 
-40.036535 	42.015334 	42.008728 	42.000951 
-40.036537 	42.015337 	42.008731 	42.000964 
-40.036520 	42.015346 	42.008737 	42.000968 
-40.036483 	42.015350 	42.008742 	42.000989 
-40.036495 	42.015350 	42.008746 	42.001015 
-40.036495 	42.015352 	42.008751 	42.001036 
-40.036508 	42.015361 	42.008761 	42.001066 
-40.036383 	42.015378 	42.008779 	42.001086 
-40.036353 	42.015398 	42.008804 	42.001109 
-40.036353 	42.015417 	42.008819 	42.001133 
-40.036412 	42.015428 	42.008828 	42.001148 
-40.036412 	42.015431 	42.008831 	42.001171 
-40.036451 	42.015434 	42.008836 	42.001197 
-40.036458 	42.015434 	42.008836 	42.001219 
-40.036460 	42.015437 	42.008839 	42.001238 
-40.036460 	42.015439 	42.008841 	42.001241 
-40.036425 	42.015440 	42.008844 	42.001255 
-40.036371 	42.015445 	42.008848 	42.001247 
-40.036335 	42.015453 	42.008857 	42.001262 
-40.036335 	42.015462 	42.008865 	42.001273 
-40.036316 	42.015475 	42.008878 	42.001280 
-40.036268 	42.015490 	42.008893 	42.001293 
-50.033329 	39.999876 	39.994904 	40.091280 
-50.033203 	39.999908 	39.994935 	40.091301 
-50.032974 	39.999935 	39.994961 	40.091319 
-50.032874 	39.999958 	39.994980 	40.091327 
-50.032821 	39.999984 	39.995007 	40.091335 
-50.032762 	40.000006 	39.995031 	40.091330 
-50.032762 	40.000020 	39.995041 	40.091335 
-50.032690 	40.000029 	39.995052 	40.091340 
-50.032616 	40.000048 	39.995068 	40.091341 
-50.032558 	40.000060 	39.995080 	40.091339 
-50.032558 	40.000068 	39.995084 	40.091335 
-50.032368 	40.000070 	39.995084 	40.091341 
-50.032368 	40.000070 	39.995086 	40.091363 
-50.032187 	40.000075 	39.995091 	40.091371 
-50.032187 	40.000085 	39.995102 	40.091374 
-50.032120 	40.000101 	39.995121 	40.091363 
-50.031918 	40.000118 	39.995139 	40.091364 
-50.031812 	40.000138 	39.995156 	40.091391 
-50.031687 	40.000150 	39.995173 	40.091414 
-50.031555 	40.000182 	39.995201 	40.091448 
-50.031444 	40.000203 	39.995221 	40.091463 
-50.031329 	40.000222 	39.995241 	40.091474 
-50.031246 	40.000245 	39.995267 	40.091491 
-50.031246 	40.000255 	39.995280 	40.091517 
-50.031157 	40.000266 	39.995292 	40.091542 
-50.031128 	40.000275 	39.995301 	40.091569 
-50.031072 	40.000282 	39.995309 	40.091599 
-50.031072 	40.000285 	39.995316 	40.091626 
-50.031035 	40.000292 	39.995324 	40.091651 
-50.030994 	40.000297 	39.995328 	40.091675 
-60.019870 	37.979610 	37.976209 	38.174591 
-60.019693 	37.979627 	37.976229 	38.174643 
-60.019574 	37.979647 	37.976246 	38.174667 
-60.019574 	37.979666 	37.976270 	38.174647 
-60.019359 	37.979693 	37.976295 	38.174657 
-60.019202 	37.979712 	37.976315 	38.174676 
-60.019202 	37.979730 	37.976332 	38.174714 
-60.019093 	37.979755 	37.976357 	38.174747 
-60.018991 	37.979774 	37.976374 	38.174763 
-60.018847 	37.979793 	37.976396 	38.174765 
-60.018541 	37.979807 	37.976411 	38.174783 
-60.018456 	37.979821 	37.976428 	38.174783 
-60.018470 	37.979837 	37.976444 	38.174816 
-60.018470 	37.979855 	37.976463 	38.174836 
-60.018550 	37.979873 	37.976480 	38.174846 
-60.018587 	37.979889 	37.976493 	38.174857 
-60.018576 	37.979895 	37.976499 	38.174860 
-60.018502 	37.979907 	37.976513 	38.174847 
-60.018502 	37.979920 	37.976524 	38.174850 
-60.018462 	37.979932 	37.976534 	38.174852 
-60.018375 	37.979945 	37.976546 	38.174875 
-60.018320 	37.979964 	37.976571 	38.174848 
-60.018299 	37.979985 	37.976591 	38.174867 
-60.018259 	37.979992 	37.976597 	38.174875 
-60.018231 	37.980005 	37.976608 	38.175100 
-60.018207 	37.980011 	37.976618 	38.175149 
-60.018245 	37.980022 	37.976630 	38.175214 
-60.018245 	37.980040 	37.976648 	38.175232 
-60.018266 	37.980055 	37.976665 	38.175250 
-60.018183 	37.980065 	37.976653 	38.175296 
