3/29/2012 3:28 PM
nDataPerSetPoint: 30
Temperature Calibration
Reference(C), FastResp 1563(Ohm), Heated 630393(Ohm)
29.866798 	55.913923 	55.908467 
29.866798 	55.913907 	55.908451 
29.866728 	55.913892 	55.908437 
29.866611 	55.913881 	55.908425 
29.866611 	55.913871 	55.908415 
29.866518 	55.913861 	55.908403 
29.866518 	55.913849 	55.908394 
29.866446 	55.913840 	55.908386 
29.866446 	55.913829 	55.908375 
29.866419 	55.913816 	55.908363 
29.866382 	55.913808 	55.908353 
29.866356 	55.913800 	55.908347 
29.866324 	55.913794 	55.908343 
29.866276 	55.913792 	55.908344 
29.866264 	55.913793 	55.908346 
29.866251 	55.913796 	55.908347 
29.866251 	55.913797 	55.908345 
29.866251 	55.913795 	55.908342 
29.866251 	55.913793 	55.908342 
29.866250 	55.913793 	55.908339 
29.866259 	55.913793 	55.908338 
29.866338 	55.913796 	55.908340 
29.866376 	55.913797 	55.908343 
29.866418 	55.913801 	55.908344 
29.866418 	55.913802 	55.908348 
29.866537 	55.913806 	55.908352 
29.866537 	55.913811 	55.908355 
29.866656 	55.913814 	55.908358 
29.866656 	55.913824 	55.908367 
29.866787 	55.913833 	55.908378 
19.871523 	53.941553 	53.937490 
19.871650 	53.941583 	53.937522 
19.871951 	53.941614 	53.937553 
19.872090 	53.941646 	53.937585 
19.872090 	53.941675 	53.937614 
19.872199 	53.941705 	53.937641 
19.872429 	53.941735 	53.937670 
19.872429 	53.941764 	53.937699 
19.872643 	53.941790 	53.937723 
19.872643 	53.941810 	53.937740 
19.872733 	53.941826 	53.937759 
19.872942 	53.941841 	53.937775 
19.872942 	53.941858 	53.937794 
19.873139 	53.941874 	53.937811 
19.873139 	53.941894 	53.937833 
19.873235 	53.941914 	53.937854 
19.873433 	53.941935 	53.937878 
19.873535 	53.941961 	53.937902 
19.873535 	53.941985 	53.937925 
19.873755 	53.942006 	53.937946 
19.873755 	53.942025 	53.937964 
19.873946 	53.942042 	53.937979 
19.873946 	53.942056 	53.937996 
19.874015 	53.942072 	53.938014 
19.874085 	53.942085 	53.938026 
19.874144 	53.942099 	53.938037 
19.874201 	53.942109 	53.938046 
19.874334 	53.942117 	53.938053 
19.874334 	53.942120 	53.938055 
19.874405 	53.942122 	53.938058 
9.888012 	51.967390 	51.963247 
9.888112 	51.967409 	51.963267 
9.888112 	51.967429 	51.963286 
9.888308 	51.967448 	51.963306 
9.888414 	51.967466 	51.963325 
9.888518 	51.967486 	51.963345 
9.888518 	51.967507 	51.963366 
9.888710 	51.967528 	51.963389 
9.888710 	51.967551 	51.963411 
9.888939 	51.967574 	51.963434 
9.889051 	51.967596 	51.963456 
9.889168 	51.967617 	51.963478 
9.889295 	51.967636 	51.963498 
9.889398 	51.967654 	51.963517 
9.889502 	51.967674 	51.963536 
9.889611 	51.967695 	51.963555 
9.889718 	51.967713 	51.963575 
9.889815 	51.967729 	51.963589 
9.889922 	51.967741 	51.963602 
9.890012 	51.967753 	51.963614 
9.890012 	51.967764 	51.963627 
9.890180 	51.967778 	51.963640 
9.890247 	51.967793 	51.963653 
9.890299 	51.967806 	51.963666 
9.890345 	51.967819 	51.963679 
9.890391 	51.967828 	51.963689 
9.890448 	51.967839 	51.963699 
9.890513 	51.967850 	51.963711 
9.890571 	51.967860 	51.963721 
9.890622 	51.967869 	51.963730 
-0.102762 	49.987181 	49.983360 
-0.102762 	49.987207 	49.983387 
-0.102616 	49.987230 	49.983411 
-0.102346 	49.987255 	49.983435 
-0.102195 	49.987281 	49.983459 
-0.102058 	49.987307 	49.983485 
-0.101929 	49.987334 	49.983513 
-0.101929 	49.987360 	49.983540 
-0.101661 	49.987386 	49.983564 
-0.101661 	49.987412 	49.983590 
-0.101535 	49.987436 	49.983617 
-0.101393 	49.987462 	49.983644 
-0.101121 	49.987490 	49.983672 
-0.100996 	49.987513 	49.983695 
-0.100890 	49.987534 	49.983715 
-0.100781 	49.987554 	49.983735 
-0.100667 	49.987573 	49.983754 
-0.100582 	49.987593 	49.983774 
-0.100494 	49.987611 	49.983794 
-0.100494 	49.987630 	49.983813 
-0.100340 	49.987651 	49.983835 
-0.100340 	49.987672 	49.983859 
-0.100252 	49.987693 	49.983880 
-0.100166 	49.987712 	49.983901 
-0.099975 	49.987733 	49.983922 
-0.099885 	49.987754 	49.983943 
-0.099798 	49.987776 	49.983964 
-0.099706 	49.987798 	49.983985 
-0.099706 	49.987819 	49.984007 
-0.099502 	49.987839 	49.984027 
-10.089097 	48.002254 	48.000307 
-10.089097 	48.002280 	48.000331 
-10.088849 	48.002307 	48.000357 
-10.088728 	48.002333 	48.000382 
-10.088599 	48.002357 	48.000407 
-10.088489 	48.002379 	48.000430 
-10.088378 	48.002401 	48.000449 
-10.088280 	48.002418 	48.000467 
-10.088178 	48.002434 	48.000484 
-10.088178 	48.002451 	48.000501 
-10.087990 	48.002467 	48.000516 
-10.087887 	48.002482 	48.000532 
-10.087787 	48.002497 	48.000548 
-10.087787 	48.002514 	48.000564 
-10.087713 	48.002532 	48.000583 
-10.087537 	48.002550 	48.000600 
-10.087442 	48.002570 	48.000620 
-10.087344 	48.002589 	48.000639 
-10.087238 	48.002610 	48.000660 
-10.087126 	48.002631 	48.000682 
-10.087126 	48.002652 	48.000702 
-10.087018 	48.002672 	48.000723 
-10.086828 	48.002693 	48.000745 
-10.086744 	48.002712 	48.000765 
-10.086667 	48.002731 	48.000785 
-10.086667 	48.002749 	48.000804 
-10.086479 	48.002767 	48.000824 
-10.086399 	48.002786 	48.000841 
-10.086317 	48.002802 	48.000858 
-10.086237 	48.002821 	48.000875 
-20.078400 	46.010653 	46.010606 
-20.078279 	46.010679 	46.010630 
-20.078136 	46.010706 	46.010655 
-20.077998 	46.010732 	46.010680 
-20.077855 	46.010755 	46.010703 
-20.077855 	46.010781 	46.010727 
-20.077611 	46.010806 	46.010752 
-20.077611 	46.010830 	46.010778 
-20.077379 	46.010854 	46.010803 
-20.077379 	46.010880 	46.010829 
-20.077128 	46.010909 	46.010859 
-20.076991 	46.010939 	46.010889 
-20.076844 	46.010970 	46.010920 
-20.076659 	46.011001 	46.010953 
-20.076471 	46.011038 	46.010991 
-20.076268 	46.011075 	46.011029 
-20.076050 	46.011117 	46.011071 
-20.076050 	46.011162 	46.011117 
-20.075599 	46.011209 	46.011163 
-20.075599 	46.011255 	46.011210 
-20.075344 	46.011303 	46.011257 
-20.074829 	46.011350 	46.011302 
-20.074568 	46.011398 	46.011348 
-20.074323 	46.011446 	46.011398 
-20.074087 	46.011494 	46.011446 
-20.073860 	46.011539 	46.011492 
-20.073634 	46.011586 	46.011537 
-20.073417 	46.011632 	46.011584 
-20.073211 	46.011680 	46.011630 
-20.073022 	46.011724 	46.011675 
-30.059364 	44.014463 	44.016112 
-30.059235 	44.014490 	44.016140 
-30.059006 	44.014516 	44.016164 
-30.058876 	44.014540 	44.016189 
-30.058785 	44.014562 	44.016211 
-30.058785 	44.014586 	44.016235 
-30.058605 	44.014607 	44.016253 
-30.058605 	44.014629 	44.016273 
-30.058524 	44.014648 	44.016291 
-30.058441 	44.014665 	44.016306 
-30.058347 	44.014683 	44.016322 
-30.058188 	44.014700 	44.016339 
-30.058119 	44.014716 	44.016355 
-30.058119 	44.014729 	44.016368 
-30.058051 	44.014742 	44.016381 
-30.057933 	44.014754 	44.016392 
-30.057933 	44.014765 	44.016401 
-30.057836 	44.014772 	44.016413 
-30.057836 	44.014783 	44.016422 
-30.057701 	44.014793 	44.016431 
-30.057616 	44.014804 	44.016441 
-30.057523 	44.014815 	44.016453 
-30.057426 	44.014829 	44.016467 
-30.057426 	44.014847 	44.016482 
-30.057254 	44.014863 	44.016498 
-30.057254 	44.014878 	44.016514 
-30.057069 	44.014894 	44.016528 
-30.057069 	44.014907 	44.016542 
-30.057006 	44.014918 	44.016552 
-30.056935 	44.014928 	44.016560 
-40.049033 	42.009693 	42.012622 
-40.048844 	42.009729 	42.012659 
-40.048653 	42.009764 	42.012695 
-40.048489 	42.009800 	42.012729 
-40.048335 	42.009835 	42.012762 
-40.048195 	42.009870 	42.012793 
-40.048074 	42.009900 	42.012821 
-40.047938 	42.009926 	42.012848 
-40.047819 	42.009948 	42.012869 
-40.047706 	42.009969 	42.012891 
-40.047600 	42.009991 	42.012912 
-40.047600 	42.010011 	42.012934 
-40.047510 	42.010032 	42.012955 
-40.047326 	42.010051 	42.012975 
-40.047326 	42.010069 	42.012994 
-40.047160 	42.010091 	42.013016 
-40.047063 	42.010113 	42.013038 
-40.046963 	42.010133 	42.013061 
-40.046858 	42.010156 	42.013082 
-40.046760 	42.010178 	42.013104 
-40.046668 	42.010201 	42.013127 
-40.046577 	42.010223 	42.013148 
-40.046496 	42.010245 	42.013169 
-40.046402 	42.010263 	42.013189 
-40.046307 	42.010283 	42.013207 
-40.046217 	42.010302 	42.013226 
-40.046116 	42.010320 	42.013244 
-40.046030 	42.010336 	42.013261 
-40.045951 	42.010350 	42.013277 
-40.045896 	42.010362 	42.013291 
-50.044393 	39.996777 	40.000234 
-50.044255 	39.996811 	40.000267 
-50.044255 	39.996842 	40.000300 
-50.043988 	39.996874 	40.000331 
-50.043871 	39.996902 	40.000358 
-50.043776 	39.996926 	40.000384 
-50.043680 	39.996951 	40.000407 
-50.043584 	39.996969 	40.000425 
-50.043486 	39.996987 	40.000444 
-50.043388 	39.997004 	40.000462 
-50.043285 	39.997024 	40.000482 
-50.043207 	39.997042 	40.000503 
-50.043108 	39.997059 	40.000521 
-50.043021 	39.997077 	40.000538 
-50.042948 	39.997095 	40.000557 
-50.042854 	39.997115 	40.000579 
-50.042771 	39.997135 	40.000597 
-50.042688 	39.997153 	40.000616 
-50.042601 	39.997169 	40.000629 
-50.042601 	39.997185 	40.000646 
-50.042429 	39.997202 	40.000663 
-50.042347 	39.997218 	40.000676 
-50.042271 	39.997230 	40.000692 
-50.042181 	39.997245 	40.000708 
-50.042075 	39.997261 	40.000727 
-50.041977 	39.997282 	40.000748 
-50.041849 	39.997304 	40.000766 
-50.041720 	39.997327 	40.000785 
-50.041607 	39.997346 	40.000804 
-50.041607 	39.997361 	40.000823 
-60.028990 	37.978289 	37.980847 
-60.028829 	37.978301 	37.980865 
-60.028699 	37.978317 	37.980881 
-60.028579 	37.978333 	37.980899 
-60.028579 	37.978350 	37.980920 
-60.028400 	37.978371 	37.980942 
-60.028249 	37.978390 	37.980960 
-60.028159 	37.978406 	37.980979 
-60.028042 	37.978429 	37.981004 
-60.027917 	37.978456 	37.981032 
-60.027812 	37.978480 	37.981059 
-60.027765 	37.978494 	37.981077 
-60.027656 	37.978510 	37.981096 
-60.027581 	37.978528 	37.981115 
-60.027548 	37.978554 	37.981141 
-60.027487 	37.978581 	37.981168 
-60.027389 	37.978608 	37.981196 
-60.027321 	37.978629 	37.981217 
-60.027271 	37.978652 	37.981241 
-60.027207 	37.978677 	37.981265 
-60.027129 	37.978701 	37.981291 
-60.027071 	37.978726 	37.981317 
-60.026980 	37.978746 	37.981334 
-60.026957 	37.978758 	37.981349 
-60.026931 	37.978777 	37.981368 
-60.026915 	37.978793 	37.981386 
-60.026873 	37.978808 	37.981398 
-60.026779 	37.978819 	37.981411 
-60.026779 	37.978832 	37.981424 
-60.026643 	37.978845 	37.981437 
