12/19/2012 1:13 PM
nDataPerSetPoint: 40
RAF Temperature Calibration 
Reference(C), Heated 708094A(Ohm), Heated 708094B(Ohm), FastResp 3226(Ohm)
29.872490 	55.900056 	55.904534 	56.137677 
29.872290 	55.900034 	55.904507 	56.137648 
29.872076 	55.900006 	55.904477 	56.137621 
29.871929 	55.899978 	55.904453 	56.137586 
29.871782 	55.899956 	55.904429 	56.137542 
29.871610 	55.899930 	55.904400 	56.137523 
29.871446 	55.899897 	55.904366 	56.137509 
29.871269 	55.899859 	55.904329 	56.137493 
29.871073 	55.899818 	55.904287 	56.137445 
29.870901 	55.899780 	55.904253 	56.137409 
29.870733 	55.899748 	55.904220 	56.137372 
29.870580 	55.899717 	55.904190 	56.137331 
29.870452 	55.899696 	55.904169 	56.137309 
29.870364 	55.899675 	55.904147 	56.137297 
29.870325 	55.899658 	55.904132 	56.137286 
29.870319 	55.899648 	55.904124 	56.137275 
29.870308 	55.899639 	55.904116 	56.137259 
29.870307 	55.899629 	55.904110 	56.137235 
29.870323 	55.899627 	55.904106 	56.137242 
29.870371 	55.899621 	55.904102 	56.137243 
29.870436 	55.899626 	55.904109 	56.137266 
29.870569 	55.899643 	55.904126 	56.137275 
29.870678 	55.899661 	55.904145 	56.137282 
29.870778 	55.899681 	55.904168 	56.137314 
29.870874 	55.899702 	55.904186 	56.137325 
29.870963 	55.899723 	55.904204 	56.137346 
29.871046 	55.899742 	55.904221 	56.137366 
29.871108 	55.899755 	55.904234 	56.137370 
29.871193 	55.899771 	55.904249 	56.137379 
29.871283 	55.899787 	55.904269 	56.137381 
29.871424 	55.899812 	55.904296 	56.137414 
29.871578 	55.899839 	55.904322 	56.137432 
29.871731 	55.899867 	55.904353 	56.137455 
29.871895 	55.899898 	55.904384 	56.137491 
29.872002 	55.899928 	55.904417 	56.137541 
29.872134 	55.899961 	55.904448 	56.137578 
29.872177 	55.899981 	55.904468 	56.137578 
29.872208 	55.899992 	55.904478 	56.137583 
29.872213 	55.899995 	55.904480 	56.137572 
29.872155 	55.899995 	55.904478 	56.137578 
19.877415 	53.928905 	53.931783 	54.154829 
19.877509 	53.928919 	53.931796 	54.154847 
19.877557 	53.928929 	53.931807 	54.154869 
19.877574 	53.928935 	53.931813 	54.154892 
19.877556 	53.928936 	53.931814 	54.154884 
19.877532 	53.928932 	53.931808 	54.154883 
19.877507 	53.928929 	53.931804 	54.154889 
19.877485 	53.928921 	53.931796 	54.154906 
19.877449 	53.928918 	53.931790 	54.154920 
19.877348 	53.928907 	53.931776 	54.154911 
19.877224 	53.928887 	53.931756 	54.154902 
19.877089 	53.928859 	53.931725 	54.154891 
19.876987 	53.928822 	53.931689 	54.154877 
19.876970 	53.928791 	53.931660 	54.154848 
19.876975 	53.928771 	53.931644 	54.154852 
19.877012 	53.928761 	53.931636 	54.154849 
19.877020 	53.928755 	53.931632 	54.154844 
19.877020 	53.928755 	53.931632 	54.154852 
19.876991 	53.928747 	53.931624 	54.154823 
19.876962 	53.928738 	53.931615 	54.154810 
19.876913 	53.928726 	53.931601 	54.154800 
19.876790 	53.928707 	53.931580 	54.154775 
19.876704 	53.928683 	53.931555 	54.154751 
19.876635 	53.928661 	53.931536 	54.154724 
19.876635 	53.928647 	53.931526 	54.154728 
19.876701 	53.928651 	53.931532 	54.154716 
19.876806 	53.928663 	53.931542 	54.154722 
19.876834 	53.928676 	53.931553 	54.154728 
19.876842 	53.928685 	53.931562 	54.154741 
19.876863 	53.928694 	53.931570 	54.154757 
19.876810 	53.928694 	53.931569 	54.154740 
19.876718 	53.928687 	53.931559 	54.154714 
19.876605 	53.928671 	53.931540 	54.154694 
19.876516 	53.928657 	53.931526 	54.154681 
19.876489 	53.928647 	53.931517 	54.154662 
19.876448 	53.928640 	53.931512 	54.154653 
19.876442 	53.928638 	53.931511 	54.154642 
19.876429 	53.928642 	53.931514 	54.154665 
19.876414 	53.928641 	53.931512 	54.154654 
19.876411 	53.928641 	53.931514 	54.154645 
9.891830 	51.953273 	51.957580 	52.167854 
9.891941 	51.953297 	51.957597 	52.167845 
9.891883 	51.953302 	51.957596 	52.167832 
9.891762 	51.953291 	51.957582 	52.167821 
9.891638 	51.953272 	51.957563 	52.167797 
9.891543 	51.953252 	51.957544 	52.167780 
9.891476 	51.953237 	51.957530 	52.167779 
9.891428 	51.953227 	51.957522 	52.167777 
9.891388 	51.953216 	51.957511 	52.167777 
9.891304 	51.953204 	51.957498 	52.167778 
9.891175 	51.953188 	51.957482 	52.167769 
9.890997 	51.953170 	51.957462 	52.167732 
9.890790 	51.953143 	51.957434 	52.167703 
9.890573 	51.953115 	51.957403 	52.167667 
9.890404 	51.953085 	51.957375 	52.167636 
9.890282 	51.953054 	51.957346 	52.167613 
9.890171 	51.953028 	51.957321 	52.167587 
9.890049 	51.953000 	51.957293 	52.167555 
9.889849 	51.952967 	51.957259 	52.167525 
9.889611 	51.952927 	51.957216 	52.167480 
9.889294 	51.952876 	51.957163 	52.167456 
9.889294 	51.952821 	51.957109 	52.167442 
9.888668 	51.952762 	51.957049 	52.167395 
9.888417 	51.952703 	51.956993 	52.167345 
9.888255 	51.952657 	51.956949 	52.167326 
9.888165 	51.952622 	51.956914 	52.167307 
9.888078 	51.952596 	51.956891 	52.167286 
9.887980 	51.952576 	51.956869 	52.167265 
9.887907 	51.952554 	51.956849 	52.167239 
9.887917 	51.952543 	51.956834 	52.167222 
9.887917 	51.952532 	51.956823 	52.167226 
9.887952 	51.952530 	51.956824 	52.167218 
9.888047 	51.952539 	51.956834 	52.167236 
9.888202 	51.952555 	51.956853 	52.167249 
9.888373 	51.952583 	51.956880 	52.167273 
9.888520 	51.952611 	51.956909 	52.167304 
9.888619 	51.952636 	51.956934 	52.167323 
9.888732 	51.952656 	51.956952 	52.167352 
9.888790 	51.952667 	51.956959 	52.167357 
9.888834 	51.952671 	51.956962 	52.167356 
-0.105673 	49.969168 	49.976788 	50.172801 
-0.105659 	49.969173 	49.976789 	50.172801 
-0.105583 	49.969180 	49.976797 	50.172816 
-0.105502 	49.969193 	49.976808 	50.172860 
-0.105378 	49.969211 	49.976829 	50.172861 
-0.105378 	49.969238 	49.976857 	50.172916 
-0.104827 	49.969274 	49.976893 	50.172982 
-0.104496 	49.969322 	49.976946 	50.173031 
-0.104124 	49.969385 	49.977011 	50.173120 
-0.103705 	49.969459 	49.977089 	50.173190 
-0.103196 	49.969546 	49.977180 	50.173283 
-0.102599 	49.969649 	49.977286 	50.173399 
-0.101917 	49.969765 	49.977403 	50.173521 
-0.101183 	49.969893 	49.977533 	50.173682 
-0.100433 	49.970034 	49.977678 	50.173811 
-0.099673 	49.970182 	49.977825 	50.173921 
-0.098878 	49.970328 	49.977973 	50.174067 
-0.098111 	49.970474 	49.978119 	50.174217 
-0.097351 	49.970620 	49.978265 	50.174344 
-0.096619 	49.970766 	49.978409 	50.174475 
-0.095913 	49.970906 	49.978547 	50.174592 
-0.095202 	49.971038 	49.978677 	50.174711 
-0.094568 	49.971165 	49.978805 	50.174849 
-0.093897 	49.971299 	49.978939 	50.174995 
-0.093199 	49.971437 	49.979077 	50.175146 
-0.092457 	49.971583 	49.979226 	50.175300 
-0.091706 	49.971734 	49.979374 	50.175438 
-0.091004 	49.971886 	49.979525 	50.175583 
-0.090330 	49.972036 	49.979674 	50.175712 
-0.089679 	49.972182 	49.979818 	50.175851 
-0.089033 	49.972323 	49.979959 	50.176012 
-0.088377 	49.972460 	49.980095 	50.176145 
-0.087761 	49.972587 	49.980222 	50.176263 
-0.087216 	49.972705 	49.980340 	50.176351 
-0.086724 	49.972818 	49.980452 	50.176474 
-0.086311 	49.972923 	49.980554 	50.176559 
-0.085919 	49.973017 	49.980647 	50.176639 
-0.085551 	49.973096 	49.980725 	50.176720 
-0.085258 	49.973164 	49.980790 	50.176794 
-0.084992 	49.973221 	49.980844 	50.176865 
-10.086660 	47.982301 	47.993740 	48.174998 
-10.086664 	47.982313 	47.993750 	48.174970 
-10.086684 	47.982315 	47.993752 	48.174956 
-10.086667 	47.982319 	47.993756 	48.174962 
-10.086659 	47.982324 	47.993759 	48.174970 
-10.086632 	47.982337 	47.993772 	48.174992 
-10.086567 	47.982351 	47.993788 	48.175007 
-10.086488 	47.982363 	47.993797 	48.175011 
-10.086406 	47.982372 	47.993808 	48.175023 
-10.086331 	47.982381 	47.993815 	48.175024 
-10.086314 	47.982391 	47.993824 	48.175109 
-10.086272 	47.982401 	47.993833 	48.175132 
-10.086194 	47.982412 	47.993846 	48.175162 
-10.086071 	47.982429 	47.993865 	48.175211 
-10.085969 	47.982455 	47.993893 	48.175251 
-10.085836 	47.982490 	47.993929 	48.175285 
-10.085670 	47.982524 	47.993962 	48.175315 
-10.085670 	47.982552 	47.993991 	48.175334 
-10.085445 	47.982575 	47.994013 	48.175354 
-10.085414 	47.982588 	47.994023 	48.175342 
-10.085410 	47.982589 	47.994022 	48.175337 
-10.085445 	47.982585 	47.994019 	48.175334 
-10.085427 	47.982586 	47.994020 	48.175340 
-10.085396 	47.982591 	47.994024 	48.175336 
-10.085310 	47.982598 	47.994029 	48.175321 
-10.085296 	47.982601 	47.994031 	48.175326 
-10.085342 	47.982598 	47.994029 	48.175329 
-10.085369 	47.982593 	47.994024 	48.175325 
-10.085397 	47.982588 	47.994018 	48.175305 
-10.085382 	47.982588 	47.994017 	48.175320 
-10.085289 	47.982594 	47.994024 	48.175332 
-10.085122 	47.982610 	47.994041 	48.175390 
-10.084953 	47.982636 	47.994065 	48.175441 
-10.084836 	47.982669 	47.994097 	48.175476 
-10.084681 	47.982703 	47.994131 	48.175522 
-10.084528 	47.982735 	47.994161 	48.175542 
-10.084443 	47.982766 	47.994190 	48.175545 
-10.084353 	47.982793 	47.994216 	48.175579 
-10.084283 	47.982819 	47.994241 	48.175587 
-10.084237 	47.982846 	47.994266 	48.175601 
-20.076880 	45.988031 	46.003097 	46.167997 
-20.076807 	45.988059 	46.003123 	46.168035 
-20.076703 	45.988081 	46.003144 	46.168059 
-20.076614 	45.988101 	46.003164 	46.168098 
-20.076507 	45.988122 	46.003186 	46.168120 
-20.076303 	45.988147 	46.003211 	46.168136 
-20.076145 	45.988172 	46.003234 	46.168157 
-20.076058 	45.988202 	46.003262 	46.168174 
-20.075997 	45.988227 	46.003288 	46.168168 
-20.075911 	45.988251 	46.003310 	46.168178 
-20.075885 	45.988265 	46.003320 	46.168196 
-20.075883 	45.988268 	46.003320 	46.168189 
-20.075805 	45.988274 	46.003326 	46.168180 
-20.075704 	45.988282 	46.003333 	46.168229 
-20.075558 	45.988294 	46.003346 	46.168272 
-20.075386 	45.988313 	46.003367 	46.168301 
-20.075172 	45.988339 	46.003392 	46.168362 
-20.075003 	45.988362 	46.003414 	46.168377 
-20.074904 	45.988380 	46.003431 	46.168392 
-20.074774 	45.988395 	46.003444 	46.168424 
-20.074645 	45.988410 	46.003458 	46.168459 
-20.074540 	45.988422 	46.003471 	46.168482 
-20.074476 	45.988437 	46.003485 	46.168518 
-20.074409 	45.988454 	46.003504 	46.168562 
-20.074342 	45.988475 	46.003523 	46.168532 
-20.074270 	45.988496 	46.003543 	46.168499 
-20.074195 	45.988514 	46.003560 	46.168498 
-20.074219 	45.988526 	46.003568 	46.168474 
-20.074254 	45.988532 	46.003573 	46.168473 
-20.074289 	45.988534 	46.003574 	46.168440 
-20.074239 	45.988542 	46.003581 	46.168406 
-20.074178 	45.988540 	46.003577 	46.168380 
-20.074157 	45.988546 	46.003583 	46.168384 
-20.074165 	45.988553 	46.003589 	46.168387 
-20.074157 	45.988557 	46.003594 	46.168416 
-20.074224 	45.988560 	46.003595 	46.168420 
-20.074260 	45.988562 	46.003596 	46.168406 
-20.074244 	45.988556 	46.003591 	46.168399 
-20.074214 	45.988549 	46.003581 	46.168388 
-20.074182 	45.988537 	46.003571 	46.168382 
-30.060958 	43.989925 	44.007288 	44.155293 
-30.060830 	43.989945 	44.007308 	44.155299 
-30.060700 	43.989971 	44.007332 	44.155296 
-30.060529 	43.989996 	44.007359 	44.155332 
-30.060341 	43.990026 	44.007392 	44.155380 
-30.060158 	43.990059 	44.007427 	44.155401 
-30.059982 	43.990093 	44.007455 	44.155437 
-30.059765 	43.990125 	44.007487 	44.155482 
-30.059551 	43.990160 	44.007520 	44.155501 
-30.059314 	43.990196 	44.007557 	44.155502 
-30.059075 	43.990229 	44.007589 	44.155548 
-30.058876 	43.990263 	44.007625 	44.155576 
-30.058647 	43.990299 	44.007664 	44.155569 
-30.058452 	43.990338 	44.007702 	44.155585 
-30.058278 	43.990378 	44.007742 	44.155591 
-30.058067 	43.990421 	44.007785 	44.155593 
-30.057932 	43.990462 	44.007826 	44.155630 
-30.057810 	43.990498 	44.007861 	44.155667 
-30.057691 	43.990532 	44.007895 	44.155738 
-30.057573 	43.990564 	44.007927 	44.155753 
-30.057466 	43.990596 	44.007957 	44.155746 
-30.057379 	43.990624 	44.007986 	44.155798 
-30.057307 	43.990654 	44.008017 	44.155815 
-30.057173 	43.990685 	44.008049 	44.155862 
-30.057031 	43.990716 	44.008081 	44.155871 
-30.056905 	43.990748 	44.008110 	44.155889 
-30.056797 	43.990774 	44.008134 	44.155891 
-30.056722 	43.990796 	44.008156 	44.155899 
-30.056676 	43.990813 	44.008174 	44.155921 
-30.056598 	43.990827 	44.008191 	44.155968 
-30.056531 	43.990843 	44.008208 	44.156000 
-30.056485 	43.990859 	44.008223 	44.156065 
-30.056409 	43.990875 	44.008241 	44.156106 
-30.056378 	43.990896 	44.008258 	44.156130 
-30.056329 	43.990914 	44.008275 	44.156151 
-30.056275 	43.990927 	44.008288 	44.156164 
-30.056242 	43.990938 	44.008300 	44.156184 
-30.056272 	43.990948 	44.008309 	44.156167 
-30.056275 	43.990953 	44.008314 	44.156160 
-30.056298 	43.990956 	44.008318 	44.156186 
-40.041555 	41.986438 	42.005333 	42.137078 
-40.041480 	41.986444 	42.005339 	42.137094 
-40.041440 	41.986455 	42.005348 	42.137102 
-40.041402 	41.986468 	42.005360 	42.137076 
-40.041302 	41.986484 	42.005377 	42.137058 
-40.041179 	41.986500 	42.005394 	42.137086 
-40.041058 	41.986519 	42.005411 	42.137110 
-40.040973 	41.986537 	42.005431 	42.137139 
-40.040884 	41.986555 	42.005451 	42.137150 
-40.040804 	41.986575 	42.005471 	42.137150 
-40.040742 	41.986597 	42.005488 	42.137155 
-40.040674 	41.986621 	42.005509 	42.137207 
-40.040594 	41.986640 	42.005528 	42.137284 
-40.040547 	41.986656 	42.005542 	42.137288 
-40.040490 	41.986669 	42.005555 	42.137296 
-40.040458 	41.986684 	42.005568 	42.137302 
-40.040438 	41.986697 	42.005579 	42.137313 
-40.040364 	41.986709 	42.005587 	42.137311 
-40.040276 	41.986715 	42.005594 	42.137339 
-40.040236 	41.986726 	42.005608 	42.137374 
-40.040205 	41.986736 	42.005618 	42.137392 
-40.040120 	41.986751 	42.005632 	42.137421 
-40.039999 	41.986768 	42.005645 	42.137443 
-40.039935 	41.986779 	42.005657 	42.137491 
-40.039887 	41.986791 	42.005669 	42.137534 
-40.039845 	41.986804 	42.005677 	42.137538 
-40.039814 	41.986813 	42.005686 	42.137551 
-40.039801 	41.986817 	42.005691 	42.137598 
-40.039754 	41.986821 	42.005694 	42.137604 
-40.039738 	41.986823 	42.005695 	42.137548 
-40.039762 	41.986822 	42.005693 	42.137523 
-40.039803 	41.986824 	42.005694 	42.137501 
-40.039847 	41.986822 	42.005693 	42.137518 
-40.039868 	41.986815 	42.005685 	42.137527 
-40.039947 	41.986801 	42.005673 	42.137518 
-40.040020 	41.986794 	42.005663 	42.137516 
-40.040080 	41.986784 	42.005654 	42.137511 
-40.040111 	41.986775 	42.005644 	42.137510 
-40.040110 	41.986770 	42.005637 	42.137474 
-40.040125 	41.986764 	42.005628 	42.137501 
-50.038139 	39.973472 	39.993665 	40.108550 
-50.038079 	39.973479 	39.993672 	40.108547 
-50.038064 	39.973486 	39.993681 	40.108536 
-50.038035 	39.973500 	39.993693 	40.108535 
-50.038005 	39.973505 	39.993699 	40.108578 
-50.037976 	39.973513 	39.993706 	40.108604 
-50.037998 	39.973521 	39.993713 	40.108604 
-50.038018 	39.973526 	39.993715 	40.108570 
-50.038009 	39.973540 	39.993729 	40.108564 
-50.037960 	39.973550 	39.993742 	40.108556 
-50.037928 	39.973563 	39.993751 	40.108552 
-50.037891 	39.973575 	39.993762 	40.108548 
-50.037777 	39.973586 	39.993774 	40.108546 
-50.037582 	39.973605 	39.993794 	40.108551 
-50.037412 	39.973627 	39.993812 	40.108550 
-50.037295 	39.973652 	39.993833 	40.108545 
-50.037178 	39.973672 	39.993854 	40.108562 
-50.037110 	39.973689 	39.993871 	40.108634 
-50.036977 	39.973704 	39.993886 	40.108706 
-50.036862 	39.973717 	39.993900 	40.108787 
-50.036793 	39.973735 	39.993917 	40.108849 
-50.036734 	39.973747 	39.993930 	40.108887 
-50.036668 	39.973763 	39.993948 	40.108920 
-50.036584 	39.973781 	39.993967 	40.108958 
-50.036478 	39.973803 	39.993990 	40.108985 
-50.036296 	39.973835 	39.994017 	40.109034 
-50.036106 	39.973870 	39.994051 	40.109077 
-50.035982 	39.973902 	39.994082 	40.109121 
-50.035884 	39.973927 	39.994109 	40.109150 
-50.035722 	39.973954 	39.994138 	40.109183 
-50.035560 	39.973982 	39.994164 	40.109197 
-50.035406 	39.974011 	39.994193 	40.109214 
-50.035259 	39.974033 	39.994211 	40.109217 
-50.035091 	39.974052 	39.994233 	40.109219 
-50.034959 	39.974072 	39.994248 	40.109233 
-50.034827 	39.974091 	39.994264 	40.109227 
-50.034710 	39.974108 	39.994280 	40.109255 
-50.034592 	39.974123 	39.994296 	40.109316 
-50.034396 	39.974140 	39.994314 	40.109336 
-50.034241 	39.974161 	39.994333 	40.109364 
-60.026263 	37.954810 	37.976199 	38.074458 
-60.026200 	37.954839 	37.976224 	38.074462 
-60.026091 	37.954864 	37.976249 	38.074484 
-60.025811 	37.954891 	37.976274 	38.074578 
-60.025604 	37.954915 	37.976297 	38.074616 
-60.025445 	37.954936 	37.976319 	38.074712 
-60.025305 	37.954959 	37.976339 	38.074763 
-60.025190 	37.954984 	37.976363 	38.074784 
-60.025056 	37.955012 	37.976389 	38.074807 
-60.024894 	37.955037 	37.976415 	38.074847 
-60.024769 	37.955061 	37.976434 	38.074921 
-60.024685 	37.955077 	37.976453 	38.074961 
-60.024592 	37.955099 	37.976474 	38.075028 
-60.024499 	37.955121 	37.976500 	38.075033 
-60.024405 	37.955148 	37.976529 	38.075052 
-60.024318 	37.955171 	37.976552 	38.075049 
-60.024284 	37.955192 	37.976572 	38.075080 
-60.024218 	37.955210 	37.976595 	38.075126 
-60.024133 	37.955227 	37.976614 	38.075124 
-60.024057 	37.955240 	37.976630 	38.075116 
-60.023952 	37.955253 	37.976642 	38.075170 
-60.023905 	37.955269 	37.976657 	38.075165 
-60.023851 	37.955284 	37.976672 	38.075191 
-60.023747 	37.955304 	37.976692 	38.075223 
-60.023625 	37.955325 	37.976713 	38.075189 
-60.023533 	37.955343 	37.976732 	38.075177 
-60.023425 	37.955361 	37.976750 	38.075192 
-60.023401 	37.955374 	37.976761 	38.075196 
-60.023368 	37.955390 	37.976776 	38.075201 
-60.023408 	37.955393 	37.976775 	38.075229 
-60.023389 	37.955390 	37.976773 	38.075289 
-60.023385 	37.955386 	37.976772 	38.075331 
-60.023410 	37.955385 	37.976771 	38.075322 
-60.023450 	37.955382 	37.976768 	38.075357 
-60.023480 	37.955377 	37.976765 	38.075346 
-60.023576 	37.955378 	37.976766 	38.075270 
-60.023703 	37.955378 	37.976764 	38.075245 
-60.023768 	37.955372 	37.976758 	38.075240 
-60.023823 	37.955361 	37.976750 	38.075232 
-60.023952 	37.955348 	37.976738 	38.075229 
