2/8/2013 6:45 AM
nDataPerSetPoint: 30
Calibrating RAF Probes, 30c to -60C, 10 deg step, 30 samples
Reference(C), Heated 43263B(Ohm), FastResp 3245(Ohm)
29.870339 	55.800806 	55.979233 
29.870339 	55.800806 	55.979233 
29.868916 	55.800530 	55.978972 
29.868995 	55.800541 	55.978998 
29.869079 	55.800557 	55.979017 
29.869196 	55.800580 	55.979026 
29.869305 	55.800606 	55.979019 
29.869418 	55.800627 	55.979017 
29.869418 	55.800651 	55.979017 
29.869567 	55.800672 	55.979034 
29.869567 	55.800690 	55.979040 
29.869731 	55.800705 	55.979068 
29.869875 	55.800730 	55.979103 
29.870044 	55.800754 	55.979144 
29.870044 	55.800781 	55.979173 
29.870193 	55.800806 	55.979212 
29.870461 	55.800831 	55.979245 
29.870461 	55.800856 	55.979261 
29.870676 	55.800878 	55.979281 
29.870764 	55.800897 	55.979296 
29.870870 	55.800908 	55.979325 
29.870986 	55.800917 	55.979357 
29.870986 	55.800930 	55.979387 
29.871165 	55.800948 	55.979421 
29.871310 	55.800965 	55.979446 
29.871443 	55.800990 	55.979490 
29.871583 	55.801013 	55.979518 
29.871693 	55.801042 	55.979544 
29.871810 	55.801064 	55.979565 
29.871941 	55.801086 	55.979561 
19.874616 	53.866261 	54.000383 
19.874741 	53.866291 	54.000428 
19.874877 	53.866315 	54.000462 
19.875022 	53.866340 	54.000511 
19.875022 	53.866368 	54.000548 
19.875279 	53.866392 	54.000587 
19.875376 	53.866411 	54.000618 
19.875394 	53.866422 	54.000634 
19.875428 	53.866438 	54.000662 
19.875495 	53.866450 	54.000662 
19.875565 	53.866462 	54.000688 
19.875657 	53.866473 	54.000709 
19.875803 	53.866487 	54.000739 
19.875890 	53.866504 	54.000758 
19.875890 	53.866527 	54.000762 
19.875996 	53.866550 	54.000779 
19.876192 	53.866564 	54.000791 
19.876293 	53.866577 	54.000797 
19.876374 	53.866589 	54.000824 
19.876510 	53.866600 	54.000842 
19.876588 	53.866615 	54.000864 
19.876717 	53.866631 	54.000879 
19.876801 	53.866650 	54.000890 
19.876887 	53.866674 	54.000906 
19.877030 	53.866698 	54.000925 
19.877166 	53.866726 	54.000944 
19.877166 	53.866752 	54.000964 
19.877440 	53.866773 	54.000989 
19.877549 	53.866792 	54.001018 
19.877651 	53.866810 	54.001064 
9.888144 	51.926302 	52.018389 
9.888139 	51.926300 	52.018394 
9.888165 	51.926301 	52.018402 
9.888211 	51.926304 	52.018413 
9.888232 	51.926306 	52.018411 
9.888286 	51.926314 	52.018422 
9.888353 	51.926328 	52.018426 
9.888474 	51.926345 	52.018453 
9.888601 	51.926366 	52.018449 
9.888709 	51.926387 	52.018455 
9.888846 	51.926409 	52.018474 
9.888846 	51.926436 	52.018473 
9.889010 	51.926466 	52.018492 
9.889436 	51.926496 	52.018502 
9.889436 	51.926530 	52.018524 
9.889949 	51.926567 	52.018558 
9.890248 	51.926605 	52.018551 
9.890528 	51.926644 	52.018534 
9.890746 	51.926679 	52.018505 
9.890945 	51.926711 	52.018506 
9.891131 	51.926746 	52.018492 
9.891283 	51.926780 	52.018535 
9.891475 	51.926815 	52.018557 
9.891475 	51.926851 	52.018573 
9.891854 	51.926888 	52.018612 
9.892053 	51.926923 	52.018630 
9.892053 	51.926959 	52.018662 
9.892276 	51.926998 	52.018687 
9.892486 	51.927034 	52.018672 
9.892851 	51.927065 	52.018657 
-0.097530 	49.978809 	50.029366 
-0.097226 	49.978844 	50.029389 
-0.097071 	49.978883 	50.029442 
-0.097071 	49.978927 	50.029482 
-0.096650 	49.978972 	50.029522 
-0.096423 	49.979017 	50.029600 
-0.096148 	49.979065 	50.029648 
-0.096148 	49.979111 	50.029673 
-0.095888 	49.979147 	50.029671 
-0.095421 	49.979186 	50.029667 
-0.095257 	49.979222 	50.029685 
-0.095100 	49.979253 	50.029667 
-0.094959 	49.979273 	50.029665 
-0.094806 	49.979288 	50.029640 
-0.094703 	49.979302 	50.029626 
-0.094703 	49.979314 	50.029626 
-0.094566 	49.979324 	50.029651 
-0.094566 	49.979332 	50.029665 
-0.094505 	49.979343 	50.029689 
-0.094394 	49.979350 	50.029717 
-0.094320 	49.979361 	50.029754 
-0.094320 	49.979371 	50.029803 
-0.094264 	49.979382 	50.029795 
-0.094154 	49.979394 	50.029775 
-0.094114 	49.979407 	50.029776 
-0.094032 	49.979417 	50.029731 
-0.094032 	49.979426 	50.029680 
-0.093925 	49.979436 	50.029635 
-0.093753 	49.979440 	50.029613 
-0.093799 	49.979439 	50.029634 
-10.084726 	48.023571 	48.034004 
-10.084726 	48.023597 	48.034027 
-10.084573 	48.023630 	48.034071 
-10.084271 	48.023667 	48.034102 
-10.084057 	48.023706 	48.034132 
-10.083856 	48.023747 	48.034161 
-10.083856 	48.023793 	48.034191 
-10.083401 	48.023846 	48.034230 
-10.083222 	48.023892 	48.034280 
-10.083026 	48.023933 	48.034324 
-10.083026 	48.023973 	48.034372 
-10.082632 	48.024013 	48.034434 
-10.082450 	48.024050 	48.034467 
-10.082450 	48.024090 	48.034493 
-10.082085 	48.024125 	48.034555 
-10.081912 	48.024157 	48.034638 
-10.081753 	48.024192 	48.034666 
-10.081586 	48.024227 	48.034676 
-10.081418 	48.024261 	48.034702 
-10.081418 	48.024292 	48.034748 
-10.081180 	48.024327 	48.034793 
-10.081180 	48.024362 	48.034839 
-10.080921 	48.024395 	48.034859 
-10.080768 	48.024422 	48.034877 
-10.080585 	48.024456 	48.034921 
-10.080386 	48.024493 	48.034956 
-10.080386 	48.024528 	48.035001 
-10.080044 	48.024561 	48.035050 
-10.080044 	48.024595 	48.035082 
-10.079858 	48.024624 	48.035136 
-20.073536 	46.060458 	46.031834 
-20.073339 	46.060492 	46.031858 
-20.073339 	46.060528 	46.031886 
-20.072884 	46.060566 	46.031897 
-20.072679 	46.060609 	46.032004 
-20.072534 	46.060648 	46.032035 
-20.072251 	46.060708 	46.032091 
-20.072164 	46.060731 	46.032151 
-20.072042 	46.060754 	46.032213 
-20.072042 	46.060784 	46.032251 
-20.071797 	46.060815 	46.032276 
-20.071632 	46.060846 	46.032304 
-20.071632 	46.060878 	46.032354 
-20.071454 	46.060915 	46.032413 
-20.071290 	46.060951 	46.032447 
-20.071153 	46.060990 	46.032497 
-20.071010 	46.061021 	46.032509 
-20.070883 	46.061052 	46.032566 
-20.070753 	46.061090 	46.032579 
-20.070442 	46.061127 	46.032611 
-20.070442 	46.061163 	46.032630 
-20.070246 	46.061199 	46.032651 
-20.070072 	46.061231 	46.032657 
-20.069925 	46.061260 	46.032698 
-20.069635 	46.061295 	46.032727 
-20.069635 	46.061325 	46.032722 
-20.069434 	46.061350 	46.032744 
-20.069354 	46.061367 	46.032755 
-20.069354 	46.061377 	46.032794 
-20.069280 	46.061385 	46.032779 
-30.054628 	44.091359 	44.025450 
-30.054357 	44.091402 	44.025507 
-30.054124 	44.091449 	44.025574 
-30.053888 	44.091496 	44.025641 
-30.053666 	44.091542 	44.025692 
-30.053666 	44.091585 	44.025756 
-30.053291 	44.091626 	44.025783 
-30.053132 	44.091665 	44.025813 
-30.053132 	44.091695 	44.025868 
-30.052984 	44.091720 	44.025884 
-30.052762 	44.091743 	44.025898 
-30.052729 	44.091760 	44.025922 
-30.052708 	44.091771 	44.025927 
-30.052699 	44.091775 	44.025924 
-30.052732 	44.091779 	44.025914 
-30.052732 	44.091780 	44.025891 
-30.052748 	44.091780 	44.025885 
-30.052732 	44.091783 	44.025853 
-30.052737 	44.091788 	44.025832 
-30.052753 	44.091791 	44.025807 
-30.052753 	44.091797 	44.025817 
-30.052709 	44.091804 	44.025829 
-30.052661 	44.091813 	44.025866 
-30.052600 	44.091822 	44.025863 
-30.052501 	44.091832 	44.025875 
-30.052391 	44.091845 	44.025916 
-30.052290 	44.091861 	44.025908 
-30.052226 	44.091875 	44.025914 
-30.052171 	44.091886 	44.025943 
-30.052132 	44.091900 	44.025936 
-40.040541 	42.113588 	42.012355 
-40.040541 	42.113614 	42.012405 
-40.040174 	42.113635 	42.012453 
-40.040174 	42.113664 	42.012484 
-40.039884 	42.113694 	42.012501 
-40.039702 	42.113725 	42.012521 
-40.039529 	42.113755 	42.012546 
-40.039381 	42.113783 	42.012580 
-40.039381 	42.113814 	42.012611 
-40.039135 	42.113845 	42.012622 
-40.039037 	42.113870 	42.012636 
-40.038935 	42.113897 	42.012692 
-40.038829 	42.113923 	42.012729 
-40.038829 	42.113950 	42.012730 
-40.038641 	42.113973 	42.012778 
-40.038641 	42.113999 	42.012792 
-40.038432 	42.114024 	42.012805 
-40.038309 	42.114053 	42.012829 
-40.038155 	42.114081 	42.012879 
-40.038012 	42.114114 	42.012888 
-40.037888 	42.114147 	42.012896 
-40.037750 	42.114177 	42.012908 
-40.037750 	42.114201 	42.012931 
-40.037473 	42.114229 	42.012960 
-40.037311 	42.114256 	42.012985 
-40.037148 	42.114282 	42.013019 
-40.036994 	42.114307 	42.013048 
-40.036994 	42.114335 	42.013067 
-40.036656 	42.114365 	42.013072 
-40.036656 	42.114393 	42.013069 
-50.035702 	40.126111 	39.991053 
-50.035636 	40.126127 	39.991070 
-50.035564 	40.126141 	39.991082 
-50.035436 	40.126162 	39.991093 
-50.035274 	40.126190 	39.991105 
-50.035077 	40.126221 	39.991124 
-50.034845 	40.126254 	39.991133 
-50.034608 	40.126290 	39.991139 
-50.034608 	40.126324 	39.991152 
-50.034371 	40.126363 	39.991199 
-50.033933 	40.126402 	39.991273 
-50.033933 	40.126442 	39.991333 
-50.033723 	40.126486 	39.991363 
-50.033288 	40.126532 	39.991398 
-50.033049 	40.126574 	39.991444 
-50.032857 	40.126615 	39.991490 
-50.032677 	40.126655 	39.991542 
-50.032530 	40.126694 	39.991604 
-50.032530 	40.126731 	39.991640 
-50.032338 	40.126762 	39.991603 
-50.032255 	40.126790 	39.991608 
-50.032255 	40.126818 	39.991629 
-50.032060 	40.126847 	39.991666 
-50.031947 	40.126878 	39.991690 
-50.031838 	40.126905 	39.991710 
-50.031694 	40.126933 	39.991728 
-50.031568 	40.126967 	39.991722 
-50.031406 	40.126999 	39.991745 
-50.031211 	40.127030 	39.991774 
-50.031038 	40.127066 	39.991802 
-60.019767 	38.132650 	37.962994 
-60.019684 	38.132694 	37.963042 
-60.019600 	38.132736 	37.963079 
-60.019308 	38.132780 	37.963101 
-60.019097 	38.132825 	37.963147 
-60.018921 	38.132868 	37.963186 
-60.018886 	38.132904 	37.963231 
-60.018908 	38.132932 	37.963272 
-60.018895 	38.132956 	37.963321 
-60.018949 	38.132981 	37.963389 
-60.019025 	38.133011 	37.963388 
-60.019025 	38.133033 	37.963398 
-60.019083 	38.133052 	37.963401 
-60.019152 	38.133068 	37.963383 
-60.019456 	38.133078 	37.963306 
-60.019584 	38.133086 	37.963251 
-60.019721 	38.133092 	37.963213 
-60.019721 	38.133098 	37.963202 
-60.020038 	38.133102 	37.963180 
-60.020194 	38.133103 	37.963157 
-60.020425 	38.133100 	37.963158 
-60.020710 	38.133102 	37.963142 
-60.020912 	38.133100 	37.963108 
-60.021073 	38.133094 	37.963113 
-60.021073 	38.133079 	37.963075 
-60.021241 	38.133060 	37.963050 
-60.021342 	38.133039 	37.963037 
-60.021342 	38.133019 	37.963050 
-60.021418 	38.132998 	37.963032 
-60.021441 	38.132978 	37.962993 
