1/10/2013 7:37 AM
nDataPerSetPoint: 40
Temperature Calibration
Reference(C), FastResp 2980(Ohm)
29.881372 	55.081757 
29.881183 	55.081719 
29.880984 	55.081674 
29.880751 	55.081629 
29.880502 	55.081595 
29.880226 	55.081558 
29.879917 	55.081519 
29.879601 	55.081480 
29.879284 	55.081419 
29.878975 	55.081358 
29.878674 	55.081298 
29.878381 	55.081237 
29.878126 	55.081190 
29.877881 	55.081146 
29.877648 	55.081096 
29.877424 	55.081051 
29.877214 	55.081014 
29.877029 	55.080978 
29.876822 	55.080950 
29.876632 	55.080909 
29.876465 	55.080885 
29.876310 	55.080847 
29.876154 	55.080829 
29.876029 	55.080804 
29.875894 	55.080777 
29.875754 	55.080733 
29.875624 	55.080703 
29.875476 	55.080661 
29.875352 	55.080631 
29.875222 	55.080605 
29.875104 	55.080578 
29.875013 	55.080556 
29.874964 	55.080524 
29.874925 	55.080508 
29.874879 	55.080507 
29.874878 	55.080512 
29.874865 	55.080510 
29.874870 	55.080498 
29.874862 	55.080484 
29.874864 	55.080481 
19.865724 	53.212570 
19.865973 	53.212631 
19.866238 	53.212683 
19.866501 	53.212725 
19.866767 	53.212773 
19.867022 	53.212818 
19.867264 	53.212853 
19.867477 	53.212884 
19.867659 	53.212910 
19.867792 	53.212939 
19.867900 	53.212971 
19.867969 	53.212997 
19.868030 	53.213022 
19.868090 	53.213027 
19.868177 	53.213033 
19.868279 	53.213049 
19.868394 	53.213064 
19.868512 	53.213084 
19.868667 	53.213112 
19.868841 	53.213140 
19.869028 	53.213155 
19.869209 	53.213170 
19.869419 	53.213190 
19.869607 	53.213211 
19.869820 	53.213235 
19.870022 	53.213258 
19.870175 	53.213283 
19.870302 	53.213308 
19.870413 	53.213338 
19.870490 	53.213366 
19.870549 	53.213392 
19.870622 	53.213406 
19.870680 	53.213414 
19.870762 	53.213422 
19.870841 	53.213429 
19.870941 	53.213442 
19.871076 	53.213466 
19.871252 	53.213497 
19.871435 	53.213516 
19.871616 	53.213539 
9.886230 	51.344921 
9.886300 	51.344951 
9.886361 	51.344977 
9.886430 	51.345005 
9.886525 	51.345020 
9.886600 	51.345027 
9.886677 	51.345021 
9.886740 	51.345042 
9.886837 	51.345061 
9.886932 	51.345082 
9.887066 	51.345127 
9.887255 	51.345173 
9.887462 	51.345220 
9.887655 	51.345253 
9.887848 	51.345287 
9.888036 	51.345343 
9.888227 	51.345386 
9.888400 	51.345431 
9.888577 	51.345482 
9.888733 	51.345523 
9.888849 	51.345579 
9.888956 	51.345626 
9.889052 	51.345652 
9.889169 	51.345675 
9.889278 	51.345668 
9.889379 	51.345679 
9.889450 	51.345697 
9.889529 	51.345717 
9.889628 	51.345744 
9.889742 	51.345763 
9.889844 	51.345784 
9.889975 	51.345781 
9.890114 	51.345793 
9.890234 	51.345800 
9.890338 	51.345810 
9.890445 	51.345823 
9.890552 	51.345843 
9.890667 	51.345837 
9.890757 	51.345814 
9.890757 	51.345797 
-0.108509 	49.468890 
-0.108337 	49.468937 
-0.108140 	49.468983 
-0.107933 	49.469029 
-0.107730 	49.469080 
-0.107511 	49.469116 
-0.107273 	49.469150 
-0.107019 	49.469196 
-0.106771 	49.469239 
-0.106558 	49.469296 
-0.106323 	49.469350 
-0.106083 	49.469388 
-0.105845 	49.469412 
-0.105620 	49.469439 
-0.105620 	49.469486 
-0.105210 	49.469518 
-0.105002 	49.469546 
-0.104796 	49.469569 
-0.104610 	49.469595 
-0.104431 	49.469635 
-0.104269 	49.469667 
-0.104127 	49.469690 
-0.103992 	49.469715 
-0.103861 	49.469748 
-0.103715 	49.469758 
-0.103572 	49.469776 
-0.103428 	49.469777 
-0.103285 	49.469785 
-0.103141 	49.469804 
-0.102988 	49.469814 
-0.102829 	49.469827 
-0.102658 	49.469830 
-0.102514 	49.469839 
-0.102394 	49.469853 
-0.102290 	49.469868 
-0.102215 	49.469899 
-0.102145 	49.469932 
-0.102096 	49.469957 
-0.102086 	49.469982 
-0.102077 	49.469989 
-10.093262 	47.588457 
-10.093123 	47.588490 
-10.093009 	47.588531 
-10.092915 	47.588570 
-10.092829 	47.588608 
-10.092755 	47.588642 
-10.092692 	47.588682 
-10.092625 	47.588725 
-10.092550 	47.588743 
-10.092510 	47.588744 
-10.092474 	47.588770 
-10.092425 	47.588797 
-10.092358 	47.588843 
-10.092283 	47.588880 
-10.092150 	47.588909 
-10.091998 	47.588920 
-10.091865 	47.588921 
-10.091719 	47.588973 
-10.091614 	47.589016 
-10.091522 	47.589055 
-10.091462 	47.589093 
-10.091370 	47.589128 
-10.091295 	47.589159 
-10.091202 	47.589183 
-10.091087 	47.589178 
-10.090968 	47.589177 
-10.090861 	47.589174 
-10.090736 	47.589205 
-10.090592 	47.589226 
-10.090431 	47.589274 
-10.090266 	47.589348 
-10.090090 	47.589414 
-10.089866 	47.589474 
-10.089636 	47.589522 
-10.089427 	47.589565 
-10.089221 	47.589608 
-10.089017 	47.589635 
-10.088840 	47.589664 
-10.088675 	47.589696 
-10.088497 	47.589735 
-20.081843 	45.700266 
-20.081618 	45.700300 
-20.081402 	45.700334 
-20.081200 	45.700371 
-20.081017 	45.700409 
-20.080811 	45.700446 
-20.080631 	45.700484 
-20.080454 	45.700533 
-20.080267 	45.700588 
-20.080093 	45.700626 
-20.079931 	45.700667 
-20.079789 	45.700704 
-20.079632 	45.700738 
-20.079474 	45.700782 
-20.079310 	45.700828 
-20.079164 	45.700870 
-20.079024 	45.700910 
-20.078805 	45.700955 
-20.078626 	45.700996 
-20.078499 	45.701038 
-20.078378 	45.701079 
-20.078263 	45.701116 
-20.078158 	45.701148 
-20.078065 	45.701179 
-20.077972 	45.701228 
-20.077870 	45.701289 
-20.077788 	45.701332 
-20.077687 	45.701372 
-20.077576 	45.701410 
-20.077460 	45.701447 
-20.077364 	45.701477 
-20.077278 	45.701508 
-20.077212 	45.701531 
-20.077125 	45.701555 
-20.077033 	45.701577 
-20.076960 	45.701603 
-20.076887 	45.701600 
-20.076790 	45.701599 
-20.076682 	45.701602 
-20.076580 	45.701598 
-30.063309 	43.806947 
-30.063122 	43.806990 
-30.062961 	43.807032 
-30.062830 	43.807075 
-30.062739 	43.807120 
-30.062659 	43.807153 
-30.062580 	43.807187 
-30.062493 	43.807220 
-30.062414 	43.807254 
-30.062341 	43.807288 
-30.062246 	43.807318 
-30.062159 	43.807349 
-30.062036 	43.807381 
-30.061925 	43.807413 
-30.061786 	43.807451 
-30.061659 	43.807494 
-30.061505 	43.807538 
-30.061352 	43.807586 
-30.061225 	43.807615 
-30.061128 	43.807649 
-30.061026 	43.807686 
-30.060919 	43.807709 
-30.060835 	43.807727 
-30.060721 	43.807745 
-30.060599 	43.807770 
-30.060414 	43.807797 
-30.060203 	43.807825 
-30.059981 	43.807855 
-30.059747 	43.807887 
-30.059492 	43.807926 
-30.059223 	43.807966 
-30.058950 	43.808014 
-30.058696 	43.808062 
-30.058445 	43.808105 
-30.058205 	43.808146 
-30.057966 	43.808193 
-30.057729 	43.808239 
-30.057487 	43.808277 
-30.057260 	43.808317 
-30.057046 	43.808360 
-40.049557 	41.908787 
-40.049387 	41.908835 
-40.049196 	41.908880 
-40.048994 	41.908921 
-40.048819 	41.908961 
-40.048652 	41.909001 
-40.048517 	41.909044 
-40.048406 	41.909088 
-40.048302 	41.909123 
-40.048172 	41.909161 
-40.048025 	41.909202 
-40.047866 	41.909247 
-40.047707 	41.909290 
-40.047525 	41.909330 
-40.047374 	41.909370 
-40.047266 	41.909411 
-40.047164 	41.909455 
-40.047075 	41.909500 
-40.046948 	41.909548 
-40.046801 	41.909594 
-40.046682 	41.909641 
-40.046550 	41.909691 
-40.046413 	41.909730 
-40.046257 	41.909751 
-40.046103 	41.909773 
-40.045951 	41.909799 
-40.045842 	41.909822 
-40.045743 	41.909845 
-40.045651 	41.909859 
-40.045535 	41.909876 
-40.045425 	41.909903 
-40.045312 	41.909939 
-40.045224 	41.909967 
-40.045130 	41.910006 
-40.045013 	41.910046 
-40.044878 	41.910086 
-40.044720 	41.910123 
-40.044567 	41.910161 
-40.044398 	41.910207 
-40.044265 	41.910249 
-50.040968 	40.005060 
-50.040888 	40.005155 
-50.040831 	40.005207 
-50.040784 	40.005250 
-50.040722 	40.005320 
-50.040602 	40.005391 
-50.040489 	40.005475 
-50.040359 	40.005489 
-50.040246 	40.005514 
-50.040132 	40.005521 
-50.040019 	40.005523 
-50.039873 	40.005562 
-50.039743 	40.005600 
-50.039605 	40.005654 
-50.039458 	40.005702 
-50.039345 	40.005698 
-50.039247 	40.005676 
-50.039137 	40.005668 
-50.039041 	40.005615 
-50.038947 	40.005556 
-50.038878 	40.005517 
-50.038821 	40.005473 
-50.038777 	40.005406 
-50.038755 	40.005315 
-50.038767 	40.005243 
-50.038788 	40.005183 
-50.038831 	40.005129 
-50.038895 	40.005080 
-50.038962 	40.005038 
-50.039016 	40.005006 
-50.039068 	40.004965 
-50.039153 	40.004913 
-50.039242 	40.004837 
-50.039318 	40.004811 
-50.039385 	40.004795 
-50.039472 	40.004766 
-50.039530 	40.004717 
-50.039579 	40.004721 
-50.039607 	40.004724 
-50.039628 	40.004747 
-60.031229 	38.094851 
-60.031044 	38.094958 
-60.030858 	38.095044 
-60.030777 	38.095096 
-60.030692 	38.095126 
-60.030591 	38.095179 
-60.030474 	38.095216 
-60.030338 	38.095233 
-60.030196 	38.095254 
-60.030055 	38.095268 
-60.029851 	38.095284 
-60.029643 	38.095318 
-60.029445 	38.095316 
-60.029445 	38.095343 
-60.029088 	38.095410 
-60.028875 	38.095477 
-60.028673 	38.095504 
-60.028478 	38.095499 
-60.028273 	38.095488 
-60.028013 	38.095468 
-60.027749 	38.095445 
-60.027522 	38.095409 
-60.027326 	38.095378 
-60.027326 	38.095349 
-60.026931 	38.095333 
-60.026702 	38.095322 
-60.026482 	38.095300 
-60.026234 	38.095265 
-60.025991 	38.095191 
-60.025754 	38.095133 
-60.025530 	38.095101 
-60.025328 	38.095080 
-60.025146 	38.095064 
-60.024851 	38.095050 
-60.024558 	38.095056 
-60.024274 	38.095055 
-60.023999 	38.095055 
-60.023721 	38.095097 
-60.023422 	38.095144 
-60.023137 	38.095196 
