2/5/2013 9:35 AM
nDataPerSetPoint: 30
Calibrating RAF Probes
Reference(C), Heated 32460(Ohm), FastResp 3241(Ohm)
29.86669	55.807607	55.105051
29.866761	55.807613	55.105054
29.866886	55.807627	55.105059
29.866886	55.807645	55.10507
29.866988	55.807666	55.105065
29.867246	55.807687	55.105106
29.867246	55.807713	55.105149
29.867469	55.807739	55.105184
29.867469	55.807757	55.105214
29.867539	55.80777	55.105238
29.867539	55.807776	55.105235
29.867533	55.807778	55.105207
29.867537	55.807776	55.105213
29.867537	55.807768	55.105215
29.867468	55.80776	55.105211
29.86747	55.807763	55.10521
29.867509	55.807761	55.105229
29.867509	55.807756	55.105231
29.867518	55.807756	55.105236
29.867494	55.807754	55.105212
29.867473	55.807749	55.105207
29.867484	55.807748	55.105225
29.867505	55.807757	55.105253
29.867585	55.80777	55.105257
29.86765	55.807788	55.105308
29.86765	55.80781	55.105333
29.867886	55.807828	55.105347
29.867886	55.807847	55.105346
29.867977	55.80786	55.105352
29.867977	55.807866	55.105349
19.880146	53.874448	53.226031
19.880224	53.874459	53.226025
19.880328	53.87447	53.226035
19.880419	53.874482	53.226039
19.880469	53.874494	53.226047
19.880469	53.8745	53.226054
19.880484	53.874503	53.22607
19.880481	53.874504	53.226076
19.880481	53.874503	53.226071
19.880462	53.8745	53.226063
19.880458	53.874501	53.226048
19.880465	53.874509	53.226044
19.880485	53.874515	53.226032
19.880485	53.87452	53.226024
19.880501	53.874523	53.226025
19.880515	53.874525	53.226043
19.880515	53.874519	53.22605
19.880554	53.874513	53.226057
19.880565	53.874511	53.226058
19.880541	53.874511	53.22607
19.880553	53.874517	53.226073
19.880526	53.874521	53.226092
19.880507	53.874526	53.22609
19.880501	53.874532	53.226097
19.880496	53.874533	53.226102
19.880486	53.874536	53.226136
19.880504	53.874535	53.226152
19.880489	53.874536	53.226159
19.880514	53.874543	53.226172
19.880507	53.874552	53.226172
9.896388	51.934565	51.341493
9.896434	51.934579	51.341488
9.89642	51.934581	51.341485
9.896332	51.934574	51.341484
9.896332	51.934557	51.341458
9.896247	51.934543	51.341446
9.89618	51.934533	51.341445
9.896198	51.934532	51.34145
9.896198	51.934541	51.341475
9.896405	51.93456	51.341501
9.896536	51.934583	51.341545
9.896536	51.934604	51.341574
9.896712	51.934618	51.341563
9.896732	51.934623	51.341551
9.896732	51.934618	51.341527
9.896681	51.934606	51.341496
9.896585	51.934591	51.341476
9.896585	51.934577	51.341454
9.896543	51.934571	51.34145
9.896587	51.934579	51.341467
9.896699	51.934593	51.34148
9.896814	51.934614	51.341524
9.896919	51.934643	51.341576
9.897017	51.934671	51.341617
9.897076	51.934695	51.341647
9.897076	51.934714	51.341648
9.897139	51.934724	51.341634
9.897066	51.934721	51.341616
9.896936	51.934707	51.341587
9.896828	51.934695	51.341574
-0.093606	49.98618	49.449751
-0.09354	49.986195	49.44977
-0.09354	49.986209	49.449781
-0.093488	49.986225	49.449781
-0.093427	49.986235	49.449787
-0.093379	49.986248	49.449784
-0.093383	49.98625	49.449786
-0.09339	49.986248	49.449786
-0.093391	49.986242	49.449779
-0.093398	49.98624	49.449776
-0.093374	49.986242	49.449765
-0.093334	49.98625	49.449778
-0.093292	49.986258	49.44978
-0.093292	49.986267	49.449781
-0.09319	49.986276	49.449762
-0.09319	49.986286	49.44975
-0.093171	49.986298	49.449747
-0.093144	49.986303	49.449726
-0.093109	49.986306	49.449719
-0.093172	49.986305	49.449719
-0.093172	49.9863	49.449731
-0.093208	49.986293	49.449738
-0.093217	49.986286	49.449735
-0.09322	49.986278	49.449733
-0.093223	49.986275	49.449764
-0.093217	49.986274	49.449785
-0.093214	49.986275	49.449793
-0.093202	49.986279	49.449781
-0.093188	49.986288	49.4498
-0.093187	49.986292	49.449823
-10.078944	48.031181	47.552498
-10.078831	48.0312	47.552494
-10.078744	48.031211	47.552492
-10.078744	48.03122	47.552493
-10.078655	48.03123	47.552501
-10.078552	48.031243	47.552513
-10.078552	48.031258	47.552527
-10.078427	48.031274	47.552565
-10.078419	48.031292	47.552617
-10.078398	48.031308	47.552637
-10.078405	48.031317	47.552653
-10.078405	48.031323	47.552653
-10.078327	48.031328	47.552652
-10.078292	48.03133	47.552659
-10.078296	48.031327	47.55269
-10.078296	48.031321	47.552736
-10.078331	48.031319	47.552758
-10.078331	48.031318	47.552778
-10.078373	48.031313	47.552788
-10.078373	48.031311	47.552793
-10.078422	48.031311	47.552803
-10.078422	48.03131	47.552814
-10.078481	48.031312	47.552825
-10.078481	48.031315	47.552851
-10.07841	48.03132	47.552849
-10.07836	48.031321	47.55285
-10.07836	48.031326	47.552869
-10.078373	48.031329	47.552884
-10.078373	48.031334	47.552894
-10.078347	48.031345	47.552906
-20.067029	46.068114	45.648071
-20.066994	46.068123	45.64807
-20.066977	46.06813	45.648071
-20.066929	46.068137	45.64809
-20.066929	46.068143	45.648095
-20.066913	46.068148	45.648076
-20.066832	46.068153	45.64808
-20.066832	46.068157	45.648094
-20.066803	46.068165	45.64809
-20.066794	46.068173	45.648082
-20.066777	46.06818	45.648083
-20.066746	46.068186	45.648093
-20.066744	46.068187	45.648104
-20.066776	46.068189	45.648123
-20.066776	46.068189	45.648144
-20.066804	46.068188	45.648142
-20.066803	46.068186	45.648134
-20.06679	46.068187	45.648138
-20.066804	46.068185	45.648142
-20.066837	46.068184	45.648165
-20.066876	46.068184	45.648191
-20.066951	46.068179	45.64819
-20.067021	46.068173	45.648191
-20.067109	46.068161	45.648225
-20.067194	46.068152	45.648256
-20.067312	46.068145	45.648285
-20.067312	46.068139	45.648288
-20.067341	46.068136	45.648259
-20.067355	46.068132	45.648255
-20.067328	46.068133	45.648256
-30.049952	44.098538	43.740466
-30.049903	44.098554	43.740474
-30.049903	44.098565	43.740479
-30.049823	44.098577	43.74047
-30.049823	44.098582	43.740495
-30.049846	44.098583	43.740489
-30.049869	44.098584	43.740512
-30.049874	44.098582	43.740509
-30.049877	44.09858	43.740505
-30.049882	44.098582	43.74053
-30.049883	44.098586	43.740541
-30.049817	44.098595	43.740591
-30.049743	44.09861	43.740635
-30.049646	44.098624	43.74064
-30.049563	44.098637	43.740658
-30.049563	44.098647	43.740684
-30.049484	44.098658	43.740691
-30.04941	44.098669	43.740682
-30.049405	44.098675	43.740689
-30.049427	44.098675	43.740692
-30.049427	44.098673	43.740673
-30.049433	44.098669	43.740641
-30.049414	44.09867	43.740632
-30.049414	44.098681	43.740659
-30.049376	44.098692	43.740686
-30.049291	44.098704	43.740685
-30.049291	44.098713	43.74067
-30.049255	44.098717	43.740696
-30.049271	44.098715	43.740685
-30.049373	44.098709	43.740684
-40.037237	42.120371	41.826958
-40.037256	42.120367	41.826968
-40.037256	42.120364	41.826938
-40.037332	42.120364	41.826938
-40.037348	42.120359	41.82694
-40.037346	42.120359	41.826937
-40.03734	42.120362	41.826915
-40.037329	42.120363	41.826893
-40.037315	42.120366	41.826864
-40.037268	42.120367	41.826834
-40.037201	42.120371	41.826822
-40.03715	42.120378	41.826858
-40.03715	42.120386	41.826891
-40.037103	42.120393	41.826908
-40.037097	42.120398	41.826912
-40.037089	42.120404	41.826919
-40.037055	42.120406	41.826938
-40.037064	42.120413	41.826962
-40.037055	42.120419	41.827
-40.037055	42.120423	41.827002
-40.036983	42.120424	41.826948
-40.036972	42.12043	41.826955
-40.036971	42.120431	41.826981
-40.036984	42.120432	41.827015
-40.036973	42.120434	41.827037
-40.036948	42.120437	41.827057
-40.036931	42.120441	41.827121
-40.036937	42.120446	41.827163
-40.036949	42.120451	41.827187
-40.036933	42.12046	41.827225
-50.031107	40.133004	39.906177
-50.031069	40.133015	39.906135
-50.031063	40.133019	39.906093
-50.031065	40.133021	39.906036
-50.03105	40.13302	39.906028
-50.03105	40.133031	39.906034
-50.031006	40.133045	39.906029
-50.030972	40.133054	39.906028
-50.030921	40.133062	39.905982
-50.030921	40.133073	39.905897
-50.030853	40.133087	39.905889
-50.030807	40.133093	39.905873
-50.030779	40.133099	39.90589
-50.030714	40.133104	39.905893
-50.030679	40.133112	39.905894
-50.030642	40.133119	39.905907
-50.030628	40.13313	39.905904
-50.030628	40.13314	39.905903
-50.030597	40.133149	39.90587
-50.030581	40.133153	39.90583
-50.030597	40.133154	39.905784
-50.030637	40.133154	39.905783
-50.030727	40.13315	39.905749
-50.030727	40.133153	39.905713
-50.030831	40.133158	39.905737
-50.03086	40.133161	39.905762
-50.03086	40.133155	39.905751
-50.030873	40.13315	39.905724
-50.030877	40.133148	39.905685
-50.030877	40.133148	39.905667
-60.015869	38.139616	37.978671
-60.015869	38.139622	37.978622
-60.01595	38.139623	37.978601
-60.01595	38.139623	37.978611
-60.016014	38.139623	37.978606
-60.016075	38.13962	37.978579
-60.016088	38.139616	37.978598
-60.016129	38.139609	37.978635
-60.01615	38.1396	37.978676
-60.01615	38.139597	37.978696
-60.016159	38.139597	37.978706
-60.016067	38.139597	37.97881
-60.016067	38.139596	37.978909
-60.016024	38.139601	37.97892
-60.016063	38.139605	37.979018
-60.016009	38.139607	37.979031
-60.016009	38.139608	37.979052
-60.016003	38.139609	37.979078
-60.016003	38.139607	37.979016
-60.015988	38.139607	37.978985
-60.016044	38.13961	37.978948
-60.016144	38.139607	37.978927
-60.016198	38.139596	37.978923
-60.016198	38.139587	37.978906
-60.016227	38.13958	37.978811
-60.016221	38.139571	37.978841
-60.016204	38.139564	37.978867
-60.016156	38.139558	37.978853
-60.016107	38.139556	37.97881
-60.016107	38.139555	37.978806
