3/5/2013 1:26 PM
nDataPerSetPoint: 30
Temperature Calibration RAF 30C to -60C, 10deg steps.  30 samples
Reference(C), Heated 630393A(Ohm), Heated 630393B(Ohm)
29.862219 	55.912556 	55.907075 
29.862433 	55.912599 	55.907117 
29.862753 	55.912632 	55.907150 
29.862753 	55.912661 	55.907180 
29.862904 	55.912691 	55.907210 
29.863042 	55.912713 	55.907233 
29.863310 	55.912738 	55.907258 
29.863310 	55.912765 	55.907287 
29.863646 	55.912798 	55.907325 
29.863824 	55.912843 	55.907372 
29.863824 	55.912883 	55.907411 
29.864167 	55.912921 	55.907446 
29.864295 	55.912949 	55.907477 
29.864295 	55.912977 	55.907501 
29.864503 	55.912998 	55.907521 
29.864503 	55.913016 	55.907542 
29.864628 	55.913031 	55.907552 
29.864628 	55.913043 	55.907561 
29.864684 	55.913055 	55.907577 
29.864822 	55.913070 	55.907597 
29.864822 	55.913093 	55.907620 
29.864919 	55.913116 	55.907643 
29.865020 	55.913136 	55.907660 
29.865247 	55.913154 	55.907681 
29.865247 	55.913173 	55.907701 
29.865338 	55.913190 	55.907719 
29.865520 	55.913208 	55.907741 
29.865548 	55.913226 	55.907755 
29.865548 	55.913236 	55.907763 
29.865555 	55.913241 	55.907764 
19.874331 	53.941724 	53.937527 
19.874359 	53.941720 	53.937519 
19.874350 	53.941715 	53.937516 
19.874350 	53.941715 	53.937514 
19.874353 	53.941716 	53.937513 
19.874371 	53.941717 	53.937513 
19.874454 	53.941727 	53.937525 
19.874454 	53.941742 	53.937539 
19.874508 	53.941758 	53.937554 
19.874538 	53.941768 	53.937565 
19.874564 	53.941776 	53.937572 
19.874524 	53.941782 	53.937577 
19.874473 	53.941780 	53.937572 
19.874473 	53.941772 	53.937561 
19.874396 	53.941763 	53.937548 
19.874396 	53.941755 	53.937541 
19.874366 	53.941753 	53.937539 
19.874409 	53.941754 	53.937541 
19.874409 	53.941767 	53.937554 
19.874472 	53.941784 	53.937572 
19.874604 	53.941798 	53.937586 
19.874681 	53.941813 	53.937605 
19.874762 	53.941836 	53.937628 
19.874762 	53.941862 	53.937654 
19.874885 	53.941886 	53.937675 
19.874947 	53.941903 	53.937692 
19.874947 	53.941922 	53.937715 
19.875028 	53.941940 	53.937731 
19.875142 	53.941965 	53.937761 
19.875248 	53.941993 	53.937788 
9.890056 	51.967649 	51.963165 
9.889922 	51.967641 	51.963153 
9.889833 	51.967630 	51.963139 
9.889833 	51.967615 	51.963125 
9.889766 	51.967601 	51.963111 
9.889684 	51.967583 	51.963094 
9.889621 	51.967575 	51.963087 
9.889621 	51.967572 	51.963087 
9.889694 	51.967574 	51.963091 
9.889694 	51.967575 	51.963093 
9.889744 	51.967582 	51.963099 
9.889781 	51.967586 	51.963103 
9.889808 	51.967590 	51.963107 
9.889811 	51.967592 	51.963109 
9.889821 	51.967595 	51.963113 
9.889834 	51.967596 	51.963117 
9.889831 	51.967596 	51.963118 
9.889895 	51.967596 	51.963122 
9.889895 	51.967606 	51.963138 
9.890119 	51.967626 	51.963164 
9.890278 	51.967655 	51.963193 
9.890463 	51.967686 	51.963228 
9.890463 	51.967721 	51.963265 
9.890647 	51.967754 	51.963297 
9.890817 	51.967786 	51.963327 
9.891004 	51.967820 	51.963360 
9.891178 	51.967853 	51.963389 
9.891319 	51.967877 	51.963412 
9.891451 	51.967900 	51.963436 
9.891781 	51.967930 	51.963465 
-0.097109 	49.988216 	49.983925 
-0.097109 	49.988237 	49.983946 
-0.097022 	49.988259 	49.983967 
-0.096897 	49.988276 	49.983981 
-0.096880 	49.988285 	49.983987 
-0.096880 	49.988289 	49.983990 
-0.096853 	49.988294 	49.983994 
-0.096813 	49.988305 	49.984004 
-0.096588 	49.988317 	49.984019 
-0.096588 	49.988339 	49.984044 
-0.096244 	49.988370 	49.984076 
-0.096087 	49.988405 	49.984108 
-0.096087 	49.988435 	49.984137 
-0.095959 	49.988463 	49.984163 
-0.095846 	49.988484 	49.984181 
-0.095759 	49.988493 	49.984190 
-0.095740 	49.988496 	49.984191 
-0.095740 	49.988492 	49.984189 
-0.095813 	49.988486 	49.984182 
-0.095840 	49.988476 	49.984172 
-0.095825 	49.988471 	49.984169 
-0.095825 	49.988476 	49.984173 
-0.095748 	49.988491 	49.984191 
-0.095663 	49.988513 	49.984212 
-0.095446 	49.988534 	49.984235 
-0.095356 	49.988555 	49.984257 
-0.095356 	49.988571 	49.984275 
-0.095301 	49.988580 	49.984283 
-0.095277 	49.988580 	49.984285 
-0.095220 	49.988584 	49.984287 
-10.087967 	48.002257 	47.999828 
-10.087635 	48.002323 	47.999893 
-10.087635 	48.002386 	47.999954 
-10.087332 	48.002447 	48.000014 
-10.086821 	48.002503 	48.000070 
-10.086593 	48.002549 	48.000113 
-10.086402 	48.002589 	48.000152 
-10.086402 	48.002620 	48.000182 
-10.086226 	48.002648 	48.000212 
-10.085836 	48.002683 	48.000248 
-10.085836 	48.002719 	48.000286 
-10.085608 	48.002760 	48.000329 
-10.085348 	48.002809 	48.000380 
-10.084771 	48.002863 	48.000432 
-10.084771 	48.002923 	48.000494 
-10.084130 	48.002992 	48.000563 
-10.083789 	48.003062 	48.000633 
-10.083426 	48.003135 	48.000706 
-10.083046 	48.003205 	48.000780 
-10.082680 	48.003283 	48.000859 
-10.082680 	48.003359 	48.000933 
-10.082306 	48.003431 	48.001003 
-10.081957 	48.003496 	48.001066 
-10.081626 	48.003559 	48.001128 
-10.081318 	48.003621 	48.001192 
-10.080739 	48.003684 	48.001256 
-10.080456 	48.003749 	48.001319 
-10.080456 	48.003810 	48.001377 
-10.079944 	48.003869 	48.001434 
-10.079944 	48.003922 	48.001486 
-20.075520 	46.010980 	46.010438 
-20.075520 	46.011000 	46.010461 
-20.075368 	46.011025 	46.010486 
-20.075226 	46.011052 	46.010512 
-20.075090 	46.011077 	46.010537 
-20.074866 	46.011098 	46.010560 
-20.074754 	46.011119 	46.010579 
-20.074754 	46.011135 	46.010596 
-20.074658 	46.011150 	46.010609 
-20.074514 	46.011164 	46.010621 
-20.074444 	46.011182 	46.010641 
-20.074390 	46.011202 	46.010658 
-20.074390 	46.011220 	46.010674 
-20.074193 	46.011238 	46.010692 
-20.074193 	46.011262 	46.010715 
-20.074067 	46.011287 	46.010743 
-20.073773 	46.011318 	46.010778 
-20.073773 	46.011356 	46.010815 
-20.073440 	46.011389 	46.010848 
-20.073291 	46.011423 	46.010883 
-20.073160 	46.011455 	46.010915 
-20.073066 	46.011483 	46.010941 
-20.073011 	46.011504 	46.010962 
-20.072998 	46.011515 	46.010974 
-20.072999 	46.011522 	46.010981 
-20.072998 	46.011527 	46.010984 
-20.072971 	46.011528 	46.010985 
-20.072971 	46.011527 	46.010987 
-20.072913 	46.011530 	46.010991 
-20.072905 	46.011537 	46.011000 
-30.057194 	44.014401 	44.015599 
-30.057225 	44.014401 	44.015597 
-30.057219 	44.014400 	44.015596 
-30.057219 	44.014401 	44.015597 
-30.057182 	44.014408 	44.015606 
-30.057110 	44.014418 	44.015615 
-30.056884 	44.014434 	44.015633 
-30.056728 	44.014457 	44.015655 
-30.056550 	44.014483 	44.015683 
-30.056362 	44.014516 	44.015718 
-30.056362 	44.014554 	44.015757 
-30.056143 	44.014591 	44.015796 
-30.055807 	44.014628 	44.015830 
-30.055807 	44.014660 	44.015864 
-30.055653 	44.014692 	44.015894 
-30.055520 	44.014718 	44.015921 
-30.055271 	44.014743 	44.015946 
-30.055158 	44.014766 	44.015971 
-30.055036 	44.014789 	44.015993 
-30.054880 	44.014815 	44.016018 
-30.054880 	44.014843 	44.016046 
-30.054711 	44.014874 	44.016079 
-30.054532 	44.014910 	44.016114 
-30.054345 	44.014945 	44.016151 
-30.054000 	44.014982 	44.016185 
-30.053840 	44.015017 	44.016219 
-30.053670 	44.015053 	44.016253 
-30.053514 	44.015087 	44.016289 
-30.053362 	44.015122 	44.016323 
-30.053254 	44.015157 	44.016360 
-40.045151 	42.009910 	42.012498 
-40.045032 	42.009940 	42.012526 
-40.044768 	42.009970 	42.012556 
-40.044768 	42.009996 	42.012583 
-40.044557 	42.010020 	42.012608 
-40.044557 	42.010047 	42.012638 
-40.044333 	42.010073 	42.012665 
-40.044214 	42.010098 	42.012692 
-40.044214 	42.010122 	42.012720 
-40.044105 	42.010147 	42.012747 
-40.043910 	42.010178 	42.012780 
-40.043910 	42.010206 	42.012810 
-40.043668 	42.010230 	42.012835 
-40.043668 	42.010252 	42.012856 
-40.043568 	42.010272 	42.012873 
-40.043375 	42.010291 	42.012893 
-40.043265 	42.010311 	42.012915 
-40.043265 	42.010332 	42.012936 
-40.043144 	42.010355 	42.012960 
-40.043031 	42.010377 	42.012981 
-40.042917 	42.010401 	42.013000 
-40.042796 	42.010424 	42.013026 
-40.042559 	42.010449 	42.013047 
-40.042559 	42.010469 	42.013070 
-40.042355 	42.010491 	42.013092 
-40.042355 	42.010512 	42.013112 
-40.042203 	42.010530 	42.013129 
-40.042203 	42.010545 	42.013143 
-40.042154 	42.010556 	42.013155 
-40.042075 	42.010566 	42.013165 
-50.037210 	39.997570 	40.000841 
-50.037210 	39.997604 	40.000872 
-50.036852 	39.997641 	40.000904 
-50.036852 	39.997672 	40.000939 
-50.036532 	39.997706 	40.000973 
-50.036372 	39.997741 	40.001012 
-50.036232 	39.997780 	40.001052 
-50.036104 	39.997816 	40.001087 
-50.036104 	39.997846 	40.001117 
-50.035999 	39.997868 	40.001143 
-50.035868 	39.997895 	40.001170 
-50.035714 	39.997924 	40.001199 
-50.035420 	39.997952 	40.001228 
-50.035420 	39.997983 	40.001260 
-50.035240 	39.998020 	40.001295 
-50.035082 	39.998059 	40.001336 
-50.034936 	39.998104 	40.001375 
-50.034622 	39.998148 	40.001413 
-50.034490 	39.998182 	40.001444 
-50.034490 	39.998200 	40.001469 
-50.034369 	39.998221 	40.001492 
-50.034137 	39.998246 	40.001519 
-50.034020 	39.998275 	40.001548 
-50.034020 	39.998302 	40.001576 
-50.033720 	39.998328 	40.001605 
-50.033720 	39.998356 	40.001633 
-50.033574 	39.998387 	40.001663 
-50.033443 	39.998412 	40.001688 
-50.033327 	39.998439 	40.001714 
-50.033226 	39.998458 	40.001737 
-60.021884 	37.979449 	37.982146 
-60.021688 	37.979463 	37.982158 
-60.021621 	37.979476 	37.982171 
-60.021621 	37.979490 	37.982185 
-60.021477 	37.979504 	37.982201 
-60.021477 	37.979521 	37.982221 
-60.021416 	37.979540 	37.982236 
-60.021405 	37.979552 	37.982251 
-60.021389 	37.979569 	37.982266 
-60.021370 	37.979583 	37.982280 
-60.021370 	37.979596 	37.982293 
-60.021384 	37.979613 	37.982310 
-60.021378 	37.979630 	37.982327 
-60.021302 	37.979641 	37.982338 
-60.021210 	37.979649 	37.982350 
-60.021084 	37.979661 	37.982364 
-60.020957 	37.979674 	37.982379 
-60.020957 	37.979714 	37.982415 
-60.020824 	37.979741 	37.982438 
-60.020824 	37.979762 	37.982456 
-60.020758 	37.979781 	37.982474 
-60.020604 	37.979799 	37.982491 
-60.020604 	37.979813 	37.982505 
-60.020447 	37.979829 	37.982524 
-60.020447 	37.979843 	37.982538 
-60.020205 	37.979859 	37.982555 
-60.020138 	37.979878 	37.982574 
-60.020138 	37.979898 	37.982592 
-60.020054 	37.979912 	37.982607 
-60.019984 	37.979928 	37.982623 
