4/1/2019 7:45 AM
nDataPerSetPoint: 50
RAF Cal T_040119
Reference(C), FastResp 3269(Ohm), FastResp 3182(Ohm), FastResp 3246(Ohm)
39.599323 	57.932854 	57.893990 	58.110637 
39.599248 	57.932837 	57.893975 	58.110610 
39.599165 	57.932787 	57.893946 	58.110590 
39.599094 	57.932774 	57.893926 	58.110572 
39.599044 	57.932765 	57.893952 	58.110571 
39.599017 	57.932751 	57.893943 	58.110569 
39.598978 	57.932758 	57.893917 	58.110559 
39.598958 	57.932740 	57.893907 	58.110544 
39.598927 	57.932745 	57.893894 	58.110522 
39.598907 	57.932738 	57.893870 	58.110504 
39.598877 	57.932721 	57.893861 	58.110502 
39.598846 	57.932712 	57.893835 	58.110503 
39.598805 	57.932728 	57.893833 	58.110493 
39.598781 	57.932752 	57.893826 	58.110497 
39.598798 	57.932788 	57.893843 	58.110507 
39.598821 	57.932761 	57.893854 	58.110507 
39.598823 	57.932729 	57.893855 	58.110485 
39.598776 	57.932673 	57.893865 	58.110444 
39.598682 	57.932661 	57.893833 	58.110408 
39.598559 	57.932612 	57.893816 	58.110374 
39.598440 	57.932572 	57.893811 	58.110342 
39.598343 	57.932530 	57.893803 	58.110335 
39.598276 	57.932511 	57.893769 	58.110334 
39.598246 	57.932513 	57.893747 	58.110333 
39.598221 	57.932551 	57.893702 	58.110334 
39.598196 	57.932525 	57.893641 	58.110334 
39.598173 	57.932515 	57.893622 	58.110319 
39.598141 	57.932483 	57.893613 	58.110313 
39.598131 	57.932493 	57.893623 	58.110317 
39.598120 	57.932495 	57.893661 	58.110324 
39.598109 	57.932466 	57.893656 	58.110323 
39.598113 	57.932437 	57.893660 	58.110320 
39.598083 	57.932430 	57.893667 	58.110316 
39.598034 	57.932397 	57.893624 	58.110308 
39.597962 	57.932364 	57.893586 	58.110297 
39.597882 	57.932364 	57.893580 	58.110282 
39.597812 	57.932336 	57.893569 	58.110278 
39.597755 	57.932339 	57.893574 	58.110286 
39.597711 	57.932306 	57.893589 	58.110283 
39.597664 	57.932316 	57.893617 	58.110272 
39.597629 	57.932304 	57.893612 	58.110256 
39.597584 	57.932307 	57.893632 	58.110261 
39.597538 	57.932321 	57.893625 	58.110259 
39.597501 	57.932307 	57.893623 	58.110247 
39.597463 	57.932288 	57.893595 	58.110244 
39.597433 	57.932322 	57.893592 	58.110249 
39.597422 	57.932306 	57.893567 	58.110249 
39.597411 	57.932326 	57.893566 	58.110265 
39.597404 	57.932310 	57.893578 	58.110264 
39.597401 	57.932324 	57.893569 	58.110261 
29.609827 	55.961008 	55.923273 	56.132210 
29.609677 	55.960978 	55.923252 	56.132197 
29.609528 	55.960965 	55.923232 	56.132168 
29.609404 	55.960938 	55.923191 	56.132167 
29.609335 	55.960964 	55.923186 	56.132155 
29.609315 	55.960969 	55.923183 	56.132163 
29.609333 	55.960985 	55.923185 	56.132180 
29.609377 	55.961018 	55.923198 	56.132195 
29.609444 	55.961034 	55.923190 	56.132209 
29.609491 	55.961042 	55.923197 	56.132211 
29.609521 	55.961080 	55.923189 	56.132215 
29.609542 	55.961092 	55.923189 	56.132247 
29.609582 	55.961122 	55.923181 	56.132268 
29.609627 	55.961123 	55.923170 	56.132302 
29.609666 	55.961135 	55.923183 	56.132305 
29.609693 	55.961137 	55.923185 	56.132302 
29.609695 	55.961114 	55.923177 	56.132296 
29.609646 	55.961097 	55.923170 	56.132282 
29.609583 	55.961076 	55.923156 	56.132269 
29.609514 	55.961080 	55.923129 	56.132265 
29.609490 	55.961084 	55.923119 	56.132272 
29.609527 	55.961080 	55.923128 	56.132300 
29.609601 	55.961108 	55.923151 	56.132343 
29.609711 	55.961148 	55.923174 	56.132373 
29.609823 	55.961159 	55.923203 	56.132399 
29.609936 	55.961156 	55.923216 	56.132415 
29.610041 	55.961157 	55.923238 	56.132437 
29.610145 	55.961179 	55.923256 	56.132453 
29.610243 	55.961192 	55.923282 	56.132476 
29.610390 	55.961217 	55.923315 	56.132504 
29.610552 	55.961236 	55.923340 	56.132537 
29.610722 	55.961288 	55.923370 	56.132574 
29.610896 	55.961311 	55.923386 	56.132592 
29.611043 	55.961320 	55.923429 	56.132592 
29.611113 	55.961304 	55.923441 	56.132606 
29.611130 	55.961292 	55.923449 	56.132600 
29.611128 	55.961314 	55.923453 	56.132590 
29.611123 	55.961280 	55.923459 	56.132587 
29.611109 	55.961285 	55.923462 	56.132598 
29.611123 	55.961290 	55.923462 	56.132600 
29.611152 	55.961282 	55.923457 	56.132605 
29.611157 	55.961295 	55.923467 	56.132593 
29.611109 	55.961243 	55.923481 	56.132579 
29.611036 	55.961234 	55.923492 	56.132547 
29.610959 	55.961198 	55.923471 	56.132529 
29.610909 	55.961197 	55.923460 	56.132522 
29.610899 	55.961198 	55.923467 	56.132528 
29.610926 	55.961229 	55.923470 	56.132534 
29.610972 	55.961249 	55.923478 	56.132545 
29.611025 	55.961265 	55.923482 	56.132549 
19.627561 	53.984736 	53.947936 	54.149424 
19.627595 	53.984739 	53.947940 	54.149441 
19.627643 	53.984728 	53.947947 	54.149446 
19.627689 	53.984740 	53.947973 	54.149456 
19.627730 	53.984755 	53.947992 	54.149458 
19.627771 	53.984771 	53.947992 	54.149459 
19.627795 	53.984789 	53.947992 	54.149460 
19.627807 	53.984819 	53.947990 	54.149476 
19.627818 	53.984824 	53.947990 	54.149465 
19.627809 	53.984810 	53.947975 	54.149461 
19.627775 	53.984795 	53.947945 	54.149453 
19.627728 	53.984742 	53.947920 	54.149439 
19.627680 	53.984717 	53.947896 	54.149424 
19.627647 	53.984725 	53.947873 	54.149414 
19.627646 	53.984719 	53.947856 	54.149426 
19.627699 	53.984721 	53.947866 	54.149449 
19.627795 	53.984762 	53.947887 	54.149485 
19.627930 	53.984795 	53.947886 	54.149531 
19.628063 	53.984813 	53.947890 	54.149569 
19.628177 	53.984806 	53.947887 	54.149586 
19.628244 	53.984812 	53.947900 	54.149585 
19.628264 	53.984812 	53.947886 	54.149570 
19.628206 	53.984754 	53.947861 	54.149552 
19.628076 	53.984705 	53.947829 	54.149516 
19.627924 	53.984674 	53.947788 	54.149477 
19.627751 	53.984642 	53.947747 	54.149458 
19.627614 	53.984638 	53.947703 	54.149446 
19.627512 	53.984631 	53.947693 	54.149440 
19.627451 	53.984621 	53.947687 	54.149429 
19.627398 	53.984618 	53.947676 	54.149415 
19.627338 	53.984599 	53.947667 	54.149411 
19.627297 	53.984602 	53.947660 	54.149402 
19.627262 	53.984605 	53.947650 	54.149404 
19.627271 	53.984593 	53.947655 	54.149413 
19.627321 	53.984604 	53.947671 	54.149445 
19.627390 	53.984611 	53.947693 	54.149479 
19.627472 	53.984611 	53.947711 	54.149504 
19.627578 	53.984630 	53.947740 	54.149507 
19.627679 	53.984694 	53.947764 	54.149544 
19.627808 	53.984754 	53.947791 	54.149574 
19.627949 	53.984802 	53.947811 	54.149605 
19.628125 	53.984874 	53.947849 	54.149644 
19.628328 	53.984914 	53.947908 	54.149690 
19.628525 	53.984935 	53.947959 	54.149733 
19.628721 	53.984987 	53.948012 	54.149765 
19.628882 	53.985017 	53.948051 	54.149788 
19.629017 	53.985008 	53.948079 	54.149795 
19.629118 	53.985003 	53.948129 	54.149792 
19.629189 	53.984975 	53.948168 	54.149783 
19.629248 	53.984988 	53.948205 	54.149783 
9.636910 	52.000495 	51.964811 	52.158824 
9.636857 	52.000514 	51.964794 	52.158821 
9.636837 	52.000512 	51.964784 	52.158832 
9.636847 	52.000525 	51.964785 	52.158855 
9.636908 	52.000545 	51.964784 	52.158877 
9.637020 	52.000585 	51.964812 	52.158893 
9.637137 	52.000636 	51.964827 	52.158919 
9.637261 	52.000684 	51.964844 	52.158941 
9.637379 	52.000700 	51.964865 	52.158959 
9.637476 	52.000721 	51.964876 	52.158972 
9.637545 	52.000714 	51.964884 	52.158968 
9.637609 	52.000692 	51.964888 	52.158982 
9.637659 	52.000688 	51.964897 	52.158984 
9.637713 	52.000702 	51.964916 	52.158983 
9.637765 	52.000710 	51.964918 	52.158980 
9.637803 	52.000727 	51.964918 	52.158982 
9.637821 	52.000762 	51.964914 	52.158977 
9.637838 	52.000760 	51.964911 	52.158964 
9.637865 	52.000776 	51.964919 	52.158961 
9.637907 	52.000811 	51.964926 	52.158964 
9.637981 	52.000846 	51.964992 	52.158990 
9.638085 	52.000871 	51.965030 	52.159040 
9.638225 	52.000891 	51.965065 	52.159075 
9.638381 	52.000904 	51.965079 	52.159109 
9.638542 	52.000961 	51.965109 	52.159123 
9.638688 	52.000977 	51.965129 	52.159145 
9.638825 	52.001019 	51.965149 	52.159171 
9.638965 	52.001053 	51.965178 	52.159190 
9.639126 	52.001109 	51.965212 	52.159231 
9.639300 	52.001159 	51.965253 	52.159284 
9.639518 	52.001201 	51.965298 	52.159344 
9.639761 	52.001230 	51.965354 	52.159399 
9.640034 	52.001303 	51.965417 	52.159450 
9.640306 	52.001359 	51.965467 	52.159501 
9.640541 	52.001379 	51.965527 	52.159538 
9.640720 	52.001415 	51.965563 	52.159566 
9.640846 	52.001437 	51.965591 	52.159578 
9.640915 	52.001424 	51.965607 	52.159577 
9.640938 	52.001407 	51.965617 	52.159565 
9.640938 	52.001415 	51.965620 	52.159546 
9.640919 	52.001405 	51.965625 	52.159543 
9.640887 	52.001417 	51.965615 	52.159530 
9.640837 	52.001405 	51.965592 	52.159513 
9.640760 	52.001399 	51.965577 	52.159493 
9.640659 	52.001391 	51.965550 	52.159464 
9.640544 	52.001359 	51.965529 	52.159449 
9.640438 	52.001319 	51.965499 	52.159431 
9.640348 	52.001315 	51.965485 	52.159425 
9.640266 	52.001298 	51.965479 	52.159420 
9.640207 	52.001282 	51.965468 	52.159414 
-0.336780 	50.013620 	49.978848 	50.165255 
-0.336708 	50.013634 	49.978860 	50.165286 
-0.336618 	50.013654 	49.978876 	50.165328 
-0.336523 	50.013681 	49.978901 	50.165347 
-0.336444 	50.013704 	49.978924 	50.165372 
-0.336382 	50.013721 	49.978946 	50.165389 
-0.336342 	50.013710 	49.978986 	50.165392 
-0.336336 	50.013707 	49.978985 	50.165393 
-0.336352 	50.013679 	49.978990 	50.165382 
-0.336376 	50.013679 	49.978983 	50.165380 
-0.336372 	50.013684 	49.978981 	50.165377 
-0.336341 	50.013700 	49.978991 	50.165394 
-0.336263 	50.013748 	49.979010 	50.165439 
-0.336138 	50.013790 	49.979036 	50.165488 
-0.335992 	50.013832 	49.979080 	50.165538 
-0.335854 	50.013865 	49.979117 	50.165573 
-0.335749 	50.013877 	49.979151 	50.165573 
-0.335699 	50.013823 	49.979118 	50.165565 
-0.335717 	50.013776 	49.979110 	50.165544 
-0.335778 	50.013759 	49.979102 	50.165518 
-0.335851 	50.013715 	49.979067 	50.165504 
-0.335907 	50.013710 	49.979059 	50.165504 
-0.335919 	50.013743 	49.979054 	50.165512 
-0.335899 	50.013778 	49.979055 	50.165532 
-0.335857 	50.013820 	49.979063 	50.165553 
-0.335801 	50.013846 	49.979089 	50.165577 
-0.335732 	50.013863 	49.979105 	50.165589 
-0.335663 	50.013854 	49.979112 	50.165598 
-0.335607 	50.013854 	49.979149 	50.165600 
-0.335579 	50.013827 	49.979146 	50.165598 
-0.335577 	50.013831 	49.979142 	50.165597 
-0.335605 	50.013785 	49.979136 	50.165578 
-0.335655 	50.013746 	49.979105 	50.165551 
-0.335717 	50.013705 	49.979084 	50.165533 
-0.335796 	50.013673 	49.979072 	50.165506 
-0.335889 	50.013657 	49.979056 	50.165484 
-0.335969 	50.013646 	49.979043 	50.165459 
-0.336007 	50.013662 	49.979038 	50.165453 
-0.336002 	50.013699 	49.979025 	50.165461 
-0.335963 	50.013707 	49.979024 	50.165470 
-0.335924 	50.013717 	49.979013 	50.165481 
-0.335890 	50.013723 	49.979011 	50.165479 
-0.335875 	50.013674 	49.979003 	50.165457 
-0.335900 	50.013621 	49.978997 	50.165426 
-0.335970 	50.013608 	49.978975 	50.165387 
-0.336071 	50.013603 	49.978955 	50.165348 
-0.336171 	50.013591 	49.978939 	50.165346 
-0.336239 	50.013636 	49.978971 	50.165338 
-0.336260 	50.013632 	49.978957 	50.165349 
-0.336229 	50.013643 	49.978953 	50.165376 
-10.306916 	48.020881 	47.987459 	48.166264 
-10.306840 	48.020864 	47.987473 	48.166280 
-10.306815 	48.020815 	47.987477 	48.166278 
-10.306814 	48.020807 	47.987473 	48.166264 
-10.306820 	48.020808 	47.987473 	48.166259 
-10.306812 	48.020811 	47.987496 	48.166251 
-10.306808 	48.020820 	47.987494 	48.166236 
-10.306795 	48.020819 	47.987485 	48.166235 
-10.306783 	48.020814 	47.987488 	48.166235 
-10.306771 	48.020805 	47.987499 	48.166241 
-10.306766 	48.020791 	47.987511 	48.166251 
-10.306754 	48.020798 	47.987525 	48.166250 
-10.306751 	48.020838 	47.987525 	48.166248 
-10.306749 	48.020856 	47.987526 	48.166254 
-10.306744 	48.020841 	47.987555 	48.166244 
-10.306735 	48.020833 	47.987589 	48.166235 
-10.306735 	48.020845 	47.987610 	48.166231 
-10.306768 	48.020849 	47.987605 	48.166222 
-10.306830 	48.020809 	47.987597 	48.166213 
-10.306921 	48.020790 	47.987611 	48.166191 
-10.307031 	48.020769 	47.987607 	48.166178 
-10.307166 	48.020712 	47.987602 	48.166157 
-10.307325 	48.020661 	47.987590 	48.166126 
-10.307480 	48.020664 	47.987587 	48.166103 
-10.307636 	48.020635 	47.987579 	48.166072 
-10.307779 	48.020628 	47.987568 	48.166042 
-10.307907 	48.020613 	47.987544 	48.166016 
-10.308040 	48.020568 	47.987523 	48.165997 
-10.308164 	48.020551 	47.987505 	48.165970 
-10.308280 	48.020544 	47.987485 	48.165942 
-10.308383 	48.020551 	47.987470 	48.165923 
-10.308455 	48.020567 	47.987460 	48.165918 
-10.308484 	48.020587 	47.987456 	48.165927 
-10.308473 	48.020604 	47.987461 	48.165946 
-10.308452 	48.020587 	47.987465 	48.165953 
-10.308423 	48.020623 	47.987464 	48.165963 
-10.308388 	48.020632 	47.987469 	48.165983 
-10.308340 	48.020680 	47.987478 	48.165988 
-10.308276 	48.020703 	47.987482 	48.166005 
-10.308191 	48.020756 	47.987495 	48.166025 
-10.308076 	48.020811 	47.987510 	48.166043 
-10.307936 	48.020848 	47.987533 	48.166072 
-10.307764 	48.020870 	47.987549 	48.166119 
-10.307586 	48.020915 	47.987578 	48.166152 
-10.307428 	48.020950 	47.987573 	48.166196 
-10.307313 	48.020950 	47.987609 	48.166210 
-10.307256 	48.020918 	47.987619 	48.166211 
-10.307230 	48.020908 	47.987628 	48.166189 
-10.307242 	48.020921 	47.987621 	48.166165 
-10.307269 	48.020918 	47.987623 	48.166162 
-20.288942 	46.019449 	45.986822 	46.158534 
-20.288723 	46.019498 	45.986857 	46.158575 
-20.288499 	46.019516 	45.986883 	46.158615 
-20.288248 	46.019589 	45.986894 	46.158677 
-20.287989 	46.019636 	45.986925 	46.158718 
-20.287740 	46.019663 	45.986922 	46.158766 
-20.287529 	46.019684 	45.986954 	46.158811 
-20.287360 	46.019712 	45.986996 	46.158846 
-20.287210 	46.019680 	45.987067 	46.158865 
-20.287109 	46.019681 	45.987123 	46.158886 
-20.287015 	46.019695 	45.987189 	46.158895 
-20.286924 	46.019695 	45.987250 	46.158908 
-20.286841 	46.019724 	45.987297 	46.158927 
-20.286747 	46.019731 	45.987243 	46.158942 
-20.286625 	46.019716 	45.987245 	46.158952 
-20.286494 	46.019744 	45.987299 	46.158965 
-20.286375 	46.019782 	45.987332 	46.158994 
-20.286278 	46.019806 	45.987389 	46.159005 
-20.286221 	46.019839 	45.987461 	46.159015 
-20.286191 	46.019829 	45.987415 	46.159022 
-20.286150 	46.019829 	45.987380 	46.159033 
-20.286133 	46.019823 	45.987375 	46.159037 
-20.286129 	46.019882 	45.987386 	46.159037 
-20.286146 	46.019857 	45.987397 	46.159040 
-20.286192 	46.019827 	45.987383 	46.159039 
-20.286280 	46.019799 	45.987322 	46.159010 
-20.286402 	46.019758 	45.987226 	46.158981 
-20.286558 	46.019726 	45.987134 	46.158944 
-20.286735 	46.019698 	45.987091 	46.158909 
-20.286914 	46.019667 	45.987073 	46.158873 
-20.287083 	46.019647 	45.987081 	46.158842 
-20.287245 	46.019609 	45.987122 	46.158819 
-20.287394 	46.019605 	45.987113 	46.158792 
-20.287534 	46.019575 	45.987027 	46.158755 
-20.287677 	46.019565 	45.986955 	46.158733 
-20.287805 	46.019534 	45.986928 	46.158717 
-20.287911 	46.019525 	45.986822 	46.158699 
-20.287997 	46.019508 	45.986700 	46.158687 
-20.288073 	46.019484 	45.986657 	46.158675 
-20.288115 	46.019493 	45.986662 	46.158661 
-20.288141 	46.019482 	45.986589 	46.158660 
-20.288163 	46.019477 	45.986548 	46.158648 
-20.288200 	46.019478 	45.986535 	46.158642 
-20.288248 	46.019482 	45.986609 	46.158620 
-20.288335 	46.019492 	45.986576 	46.158616 
-20.288431 	46.019471 	45.986543 	46.158606 
-20.288511 	46.019443 	45.986486 	46.158604 
-20.288566 	46.019422 	45.986419 	46.158606 
-20.288570 	46.019411 	45.986365 	46.158613 
-20.288531 	46.019470 	45.986424 	46.158627 
-30.264519 	44.012863 	43.978975 	44.145381 
-30.264457 	44.012890 	43.978890 	44.145397 
-30.264406 	44.012898 	43.978869 	44.145416 
-30.264347 	44.012915 	43.978838 	44.145432 
-30.264276 	44.012955 	43.978837 	44.145453 
-30.264205 	44.012969 	43.978853 	44.145485 
-30.264140 	44.013002 	43.978863 	44.145514 
-30.264085 	44.012985 	43.978894 	44.145543 
-30.264022 	44.012987 	43.978924 	44.145573 
-30.263970 	44.013025 	43.978932 	44.145601 
-30.263922 	44.013025 	43.978978 	44.145628 
-30.263903 	44.013058 	43.978993 	44.145652 
-30.263878 	44.013047 	43.979007 	44.145664 
-30.263853 	44.013062 	43.979080 	44.145666 
-30.263823 	44.013077 	43.979065 	44.145665 
-30.263783 	44.013061 	43.979137 	44.145670 
-30.263759 	44.013058 	43.979176 	44.145685 
-30.263726 	44.013068 	43.979234 	44.145700 
-30.263701 	44.013085 	43.979251 	44.145720 
-30.263688 	44.013073 	43.979289 	44.145741 
-30.263685 	44.013115 	43.979321 	44.145747 
-30.263688 	44.013117 	43.979336 	44.145752 
-30.263675 	44.013111 	43.979333 	44.145761 
-30.263652 	44.013149 	43.979323 	44.145770 
-30.263632 	44.013125 	43.979327 	44.145784 
-30.263614 	44.013136 	43.979316 	44.145791 
-30.263584 	44.013153 	43.979306 	44.145793 
-30.263561 	44.013079 	43.979333 	44.145792 
-30.263565 	44.013067 	43.979307 	44.145795 
-30.263571 	44.013062 	43.979332 	44.145786 
-30.263591 	44.013108 	43.979349 	44.145779 
-30.263613 	44.013104 	43.979462 	44.145784 
-30.263611 	44.013135 	43.979542 	44.145783 
-30.263591 	44.013167 	43.979586 	44.145788 
-30.263566 	44.013150 	43.979639 	44.145789 
-30.263529 	44.013141 	43.979689 	44.145775 
-30.263491 	44.013099 	43.979746 	44.145763 
-30.263462 	44.013117 	43.979780 	44.145757 
-30.263430 	44.013137 	43.979787 	44.145752 
-30.263407 	44.013124 	43.979832 	44.145746 
-30.263386 	44.013111 	43.979773 	44.145743 
-30.263367 	44.013097 	43.979753 	44.145745 
-30.263368 	44.013157 	43.979759 	44.145746 
-30.263372 	44.013131 	43.979734 	44.145752 
-30.263372 	44.013115 	43.979727 	44.145761 
-30.263367 	44.013125 	43.979686 	44.145774 
-30.263352 	44.013146 	43.979594 	44.145769 
-30.263352 	44.013137 	43.979537 	44.145773 
-30.263368 	44.013132 	43.979496 	44.145774 
-30.263393 	44.013141 	43.979407 	44.145786 
-40.238997 	41.999994 	41.968905 	42.126517 
-40.238958 	41.999978 	41.968908 	42.126519 
-40.238930 	41.999981 	41.969022 	42.126523 
-40.238904 	42.000042 	41.968983 	42.126529 
-40.238887 	42.000052 	41.969095 	42.126535 
-40.238878 	42.000061 	41.969118 	42.126544 
-40.238852 	42.000034 	41.969130 	42.126552 
-40.238828 	42.000047 	41.969096 	42.126560 
-40.238795 	42.000007 	41.969171 	42.126568 
-40.238763 	41.999988 	41.969124 	42.126576 
-40.238733 	42.000038 	41.968940 	42.126583 
-40.238696 	42.000092 	41.968943 	42.126587 
-40.238649 	42.000171 	41.968942 	42.126590 
-40.238602 	42.000209 	41.968997 	42.126592 
-40.238564 	42.000225 	41.969018 	42.126596 
-40.238526 	42.000217 	41.969213 	42.126599 
-40.238490 	42.000207 	41.969178 	42.126604 
-40.238462 	42.000212 	41.969148 	42.126611 
-40.238433 	42.000250 	41.969160 	42.126617 
-40.238404 	42.000199 	41.969000 	42.126625 
-40.238379 	42.000174 	41.969116 	42.126633 
-40.238369 	42.000158 	41.969045 	42.126644 
-40.238372 	42.000138 	41.968989 	42.126652 
-40.238358 	42.000165 	41.968898 	42.126659 
-40.238334 	42.000166 	41.968969 	42.126664 
-40.238305 	42.000161 	41.968951 	42.126669 
-40.238271 	42.000137 	41.968987 	42.126674 
-40.238246 	42.000127 	41.969085 	42.126694 
-40.238240 	42.000168 	41.969041 	42.126714 
-40.238232 	42.000206 	41.968877 	42.126730 
-40.238208 	42.000239 	41.968705 	42.126744 
-40.238174 	42.000255 	41.968779 	42.126755 
-40.238152 	42.000263 	41.968799 	42.126769 
-40.238131 	42.000231 	41.968941 	42.126772 
-40.238109 	42.000239 	41.968962 	42.126775 
-40.238085 	42.000250 	41.969023 	42.126778 
-40.238061 	42.000259 	41.969073 	42.126781 
-40.238033 	42.000231 	41.969045 	42.126779 
-40.238012 	42.000251 	41.969093 	42.126780 
-40.237998 	42.000242 	41.969043 	42.126781 
-40.237991 	42.000223 	41.969183 	42.126788 
-40.237997 	42.000188 	41.969281 	42.126804 
-40.237995 	42.000114 	41.969299 	42.126817 
-40.237984 	42.000082 	41.969287 	42.126829 
-40.237961 	42.000079 	41.969334 	42.126841 
-40.237932 	42.000082 	41.969182 	42.126851 
-40.237906 	42.000104 	41.969230 	42.126860 
-40.237874 	42.000082 	41.969288 	42.126868 
-40.237860 	42.000049 	41.969227 	42.126872 
-40.237858 	42.000046 	41.969383 	42.126878 
-50.216720 	39.979294 	39.949664 	40.099840 
-50.216648 	39.979404 	39.949721 	40.099851 
-50.216562 	39.979522 	39.949648 	40.099866 
-50.216470 	39.979530 	39.949679 	40.099878 
-50.216405 	39.979483 	39.949793 	40.099884 
-50.216348 	39.979542 	39.949962 	40.099898 
-50.216278 	39.979616 	39.950006 	40.099913 
-50.216200 	39.979599 	39.950109 	40.099921 
-50.216127 	39.979641 	39.950189 	40.099934 
-50.216076 	39.979563 	39.950237 	40.099947 
-50.216056 	39.979514 	39.950402 	40.099964 
-50.216084 	39.979444 	39.950634 	40.099978 
-50.216162 	39.979436 	39.950651 	40.099985 
-50.216267 	39.979407 	39.950623 	40.099992 
-50.216353 	39.979417 	39.950646 	40.099988 
-50.216433 	39.979389 	39.951071 	40.099990 
-50.216489 	39.979416 	39.951127 	40.099983 
-50.216531 	39.979411 	39.951190 	40.099990 
-50.216549 	39.979403 	39.951157 	40.100005 
-50.216527 	39.979403 	39.951276 	40.100023 
-50.216479 	39.979419 	39.951322 	40.100036 
-50.216388 	39.979448 	39.951299 	40.100068 
-50.216269 	39.979530 	39.951252 	40.100083 
-50.216131 	39.979597 	39.951314 	40.100109 
-50.215978 	39.979608 	39.951297 	40.100138 
-50.215814 	39.979643 	39.951355 	40.100188 
-50.215668 	39.979658 	39.951411 	40.100215 
-50.215527 	39.979669 	39.951335 	40.100238 
-50.215402 	39.979729 	39.951296 	40.100262 
-50.215295 	39.979737 	39.951120 	40.100281 
-50.215197 	39.979717 	39.951083 	40.100298 
-50.215129 	39.979697 	39.951240 	40.100314 
-50.215064 	39.979712 	39.951450 	40.100328 
-50.215004 	39.979710 	39.951732 	40.100347 
-50.214937 	39.979724 	39.951701 	40.100365 
-50.214837 	39.979783 	39.951660 	40.100384 
-50.214725 	39.979758 	39.951715 	40.100403 
-50.214582 	39.979776 	39.951681 	40.100425 
-50.214437 	39.979871 	39.951741 	40.100442 
-50.214255 	39.979943 	39.951710 	40.100466 
-50.214056 	39.979879 	39.951712 	40.100494 
-50.213817 	39.979854 	39.951756 	40.100529 
-50.213527 	39.979836 	39.951929 	40.100567 
-50.213216 	39.979870 	39.951853 	40.100602 
-50.212912 	39.979894 	39.951914 	40.100641 
-50.212602 	39.979948 	39.951658 	40.100678 
-50.212293 	39.979974 	39.951668 	40.100719 
-50.211959 	39.980063 	39.951696 	40.100754 
-50.211647 	39.980166 	39.951588 	40.100790 
-50.211385 	39.980224 	39.951515 	40.100822 
-60.176246 	37.952973 	37.922369 	38.068651 
-60.176226 	37.952906 	37.922227 	38.068624 
-60.176193 	37.952861 	37.922415 	38.068612 
-60.176126 	37.952824 	37.922597 	38.068624 
-60.176033 	37.952801 	37.922709 	38.068646 
-60.175927 	37.952801 	37.922608 	38.068671 
-60.175819 	37.952864 	37.922707 	38.068701 
-60.175684 	37.952910 	37.922755 	38.068742 
-60.175537 	37.952936 	37.922926 	38.068788 
-60.175372 	37.952965 	37.923093 	38.068843 
-60.175194 	37.952982 	37.923195 	38.068889 
-60.175028 	37.952994 	37.923358 	38.068918 
-60.174876 	37.953026 	37.923432 	38.068937 
-60.174732 	37.953043 	37.923503 	38.068955 
-60.174647 	37.953044 	37.923448 	38.068974 
-60.174607 	37.953051 	37.923341 	38.068996 
-60.174592 	37.953036 	37.923191 	38.069024 
-60.174621 	37.953002 	37.922867 	38.069053 
-60.174683 	37.952962 	37.922718 	38.069076 
-60.174796 	37.952907 	37.922587 	38.069097 
-60.174988 	37.952867 	37.922486 	38.069117 
-60.175214 	37.952859 	37.922247 	38.069145 
-60.175427 	37.952868 	37.922105 	38.069168 
-60.175621 	37.952846 	37.922031 	38.069182 
-60.175789 	37.952830 	37.921863 	38.069195 
-60.175921 	37.952818 	37.921973 	38.069209 
-60.175996 	37.952816 	37.922035 	38.069222 
-60.176036 	37.952800 	37.922020 	38.069230 
-60.176054 	37.952791 	37.922099 	38.069236 
-60.176069 	37.952787 	37.922215 	38.069239 
-60.176093 	37.952811 	37.922283 	38.069255 
-60.176140 	37.952840 	37.922380 	38.069313 
-60.176185 	37.952881 	37.922255 	38.069355 
-60.176258 	37.952908 	37.922287 	38.069369 
-60.176324 	37.952924 	37.922260 	38.069371 
-60.176402 	37.952912 	37.922265 	38.069367 
-60.176481 	37.952877 	37.922080 	38.069360 
-60.176621 	37.952863 	37.921995 	38.069363 
-60.176784 	37.952842 	37.922150 	38.069366 
-60.176970 	37.952824 	37.922484 	38.069363 
-60.177187 	37.952821 	37.922587 	38.069352 
-60.177399 	37.952825 	37.922764 	38.069324 
-60.177617 	37.952816 	37.923043 	38.069299 
-60.177816 	37.952756 	37.923152 	38.069277 
-60.177999 	37.952713 	37.923441 	38.069267 
-60.178195 	37.952694 	37.923621 	38.069260 
-60.178405 	37.952657 	37.923622 	38.069247 
-60.178606 	37.952650 	37.923701 	38.069230 
-60.178791 	37.952647 	37.923791 	38.069212 
-60.178964 	37.952660 	37.923864 	38.069191 
